timestamps,TP9,AF7,AF8,TP10
1669195274.326,627.930,-817.871,-836.426,289.551
1669195274.330,-972.656,563.965,621.094,579.102
1669195274.334,-479.004,-846.680,-813.477,-36.133
1669195274.338,-1000.000,-1000.000,-1000.000,-550.781
1669195274.342,-837.402,333.984,343.750,-364.258
1669195274.346,550.293,-840.820,-826.660,194.824
1669195274.350,933.105,529.785,444.824,526.855
1669195274.353,-359.863,-722.168,-831.055,48.340
1669195274.357,-1000.000,-1000.000,-1000.000,-522.949
1669195274.361,-874.512,-27.344,58.105,-433.594
1669195274.365,489.746,-902.832,-860.840,119.629
1669195274.369,-820.801,812.500,735.352,578.125
1669195274.371,24.414,-558.594,-664.551,154.785
1669195274.375,-1000.000,-1000.000,-1000.000,-480.957
1669195274.379,-947.266,-346.680,-72.266,-447.266
1669195274.383,346.680,986.816,-921.387,31.738
1669195274.387,-794.922,857.910,815.918,542.969
1669195274.391,388.672,-565.918,-563.477,233.887
1669195274.395,-916.504,-1000.000,-1000.000,-465.332
1669195274.398,-1000.000,-608.398,-319.824,-517.090
1669195274.402,133.789,833.496,964.355,-41.992
1669195274.406,-833.496,854.492,823.730,511.230
1669195274.410,626.465,-547.852,-500.488,331.055
1669195274.414,-755.859,-1000.000,-1000.000,-371.094
1669195274.417,-1000.000,-794.922,-720.215,-499.512
1669195274.421,-149.902,633.789,697.266,-79.590
1669195274.425,-936.035,-913.574,-986.328,511.230
1669195274.429,783.203,-339.844,-461.426,438.477
1669195274.433,-615.723,-1000.000,-1000.000,-299.805
1669195274.437,-1000.000,-830.566,-843.262,-536.621
1669195274.441,-474.121,542.480,569.824,-171.875
1669195274.444,926.758,-845.215,-909.180,443.359
1669195274.448,877.930,-88.867,-337.891,501.465
1669195274.452,-579.102,-1000.000,-1000.000,-226.074
1669195274.456,-1000.000,-844.727,-816.406,-550.781
1669195274.460,-707.031,514.160,495.605,-225.098
1669195274.462,775.391,-814.453,-827.637,380.859
1669195274.466,928.711,279.785,451.172,547.852
1669195274.470,-593.750,-1000.000,-944.824,-136.230
1669195274.474,-1000.000,-933.105,-920.898,-545.898
1669195274.478,-815.918,452.637,534.668,-297.852
1669195274.482,636.230,-817.871,-837.402,269.043
1669195274.486,-981.934,564.941,625.977,545.410
1669195274.489,-494.141,-845.703,-812.500,-46.875
1669195274.493,-1000.000,-1000.000,-1000.000,-543.457
1669195274.497,-845.703,321.289,347.168,-370.605
1669195274.501,552.734,-838.379,-828.125,196.289
1669195274.505,-885.742,711.426,640.137,597.168
1669195274.506,-301.758,-676.270,-760.254,81.055
1669195274.510,-1000.000,-1000.000,-1000.000,-500.000
1669195274.514,-858.887,64.941,108.398,-394.043
1669195274.518,488.770,-892.090,-856.934,136.719
1669195274.522,-825.684,800.781,724.609,591.797
1669195274.526,-8.789,-556.641,-668.457,169.434
1669195274.530,-1000.000,-1000.000,-1000.000,-468.262
1669195274.533,-937.012,-346.191,-78.125,-443.359
1669195274.537,361.816,987.305,-926.270,66.895
1669195274.541,-795.410,858.398,827.148,583.496
1669195274.545,351.562,-566.406,-555.176,245.117
1669195274.549,-936.035,-1000.000,-1000.000,-435.059
1669195274.551,-1000.000,-595.215,-281.738,-495.117
1669195274.555,160.645,852.539,985.352,-41.992
1669195274.559,-824.219,938.477,912.598,542.480
1669195274.563,600.098,-529.785,-469.727,330.566
1669195274.567,-770.508,-1000.000,-1000.000,-410.156
1669195274.571,-1000.000,-764.160,-640.137,-532.227
1669195274.575,-159.668,663.574,753.418,-91.797
1669195274.578,-936.035,-930.664,996.582,497.070
1669195274.582,772.949,-365.234,-461.426,416.504
1669195274.586,-629.395,-1000.000,-1000.000,-308.594
1669195274.590,-1000.000,-824.707,-841.309,-541.992
1669195274.594,-462.402,544.922,568.359,-160.645
1669195274.611,934.082,-844.727,-905.762,450.684
1669195274.615,872.070,-79.590,-319.336,489.746
1669195274.619,-582.520,-1000.000,-1000.000,-236.816
1669195274.623,-1000.000,-848.633,-826.172,-553.223
1669195274.627,-692.383,518.066,507.324,-225.098
1669195274.631,791.016,-815.918,-836.426,381.836
1669195274.635,920.410,229.492,297.363,550.781
1669195274.638,-600.586,-1000.000,-999.023,-141.602
1669195274.642,-1000.000,-920.898,-897.461,-555.176
1669195274.646,-820.312,456.543,525.391,-286.133
1669195274.650,637.207,-816.895,-834.961,283.203
1669195274.654,-991.211,559.570,621.094,536.133
1669195274.642,-513.672,-846.680,-809.570,-73.730
1669195274.646,-1000.000,-1000.000,-1000.000,-558.105
1669195274.650,-848.145,309.082,329.590,-360.352
1669195274.654,557.617,-838.867,-827.637,197.266
1669195274.658,-898.438,715.332,641.602,561.035
1669195274.662,-340.332,-675.293,-760.742,26.855
1669195274.666,-1000.000,-1000.000,-1000.000,-551.758
1669195274.669,-853.516,75.195,110.352,-439.941
1669195274.673,498.047,-889.160,-852.539,98.145
1669195274.677,-829.590,799.805,709.961,568.848
1669195274.681,-43.457,-564.453,-690.918,148.926
1669195274.685,-1000.000,-1000.000,-1000.000,-496.582
1669195274.701,-931.641,-284.180,-35.645,-457.520
1669195274.705,364.746,-991.211,-908.691,58.594
1669195274.709,-795.410,847.656,805.176,577.148
1669195274.713,324.707,-561.523,-572.266,244.141
1669195274.717,-949.707,-1000.000,-1000.000,-439.941
1669195274.721,-1000.000,-633.789,-299.316,-475.586
1669195274.725,179.199,827.148,979.004,-28.809
1669195274.728,-818.848,948.242,913.574,538.574
1669195274.732,582.520,-528.320,-472.656,343.750
1669195274.736,-786.133,-1000.000,-1000.000,-388.672
1669195274.740,-1000.000,-745.605,-635.254,-536.133
1669195274.744,-114.258,687.012,759.277,-108.398
1669195274.748,-918.457,-939.941,994.629,503.418
1669195274.752,756.836,-376.465,-462.402,423.340
1669195274.756,-638.184,-1000.000,-1000.000,-314.453
1669195274.760,-1000.000,-826.172,-845.703,-542.969
1669195274.764,-450.195,553.223,579.102,-166.016
1669195274.768,939.941,-854.492,-923.828,436.523
1669195274.772,868.652,-145.508,-390.625,465.820
1669195274.775,-583.496,-1000.000,-1000.000,-265.137
1669195274.779,-1000.000,-838.379,-816.895,-557.617
1669195274.783,-678.223,511.230,499.512,-229.492
1669195274.787,802.734,-814.453,-832.520,357.910
1669195274.791,916.992,269.531,353.027,525.391
1669195274.792,-599.121,-1000.000,-979.492,-153.320
1669195274.796,-1000.000,-925.293,-910.645,-556.641
1669195274.800,-799.805,479.492,536.621,-286.133
1669195274.804,653.809,-817.871,-836.426,274.414
1669195274.808,900.391,429.688,500.488,501.465
1669195274.812,-555.664,-905.762,-867.676,-87.891
1669195274.816,-1000.000,-1000.000,-1000.000,-557.617
1669195274.819,-854.980,322.754,357.422,-363.770
1669195274.823,562.988,-833.984,-825.684,219.238
1669195274.827,-900.879,705.078,637.695,581.055
1669195274.831,-345.703,-686.523,-760.742,46.387
1669195274.835,-1000.000,-1000.000,-1000.000,-510.742
1669195274.836,-851.074,87.402,104.492,-395.508
1669195274.840,505.859,-886.230,-852.539,138.184
1669195274.844,-834.473,798.340,707.520,583.984
1669195274.848,-67.871,-564.453,-693.359,149.414
1669195274.852,-1000.000,-1000.000,-1000.000,-477.539
1669195274.856,-918.457,-276.367,-45.410,-432.617
1669195274.860,385.254,-988.281,-907.227,80.566
1669195274.863,-797.363,848.145,793.945,580.566
1669195274.867,311.523,-561.523,-593.262,225.098
1669195274.871,-957.031,-1000.000,-1000.000,-455.078
1669195274.875,-1000.000,-560.547,-279.785,-489.258
1669195274.879,198.730,875.000,990.234,-20.508
1669195274.896,-815.918,927.734,900.879,548.340
1669195274.900,574.707,-532.715,-486.328,330.078
1669195274.904,-794.922,-1000.000,-1000.000,-395.996
1669195274.908,-1000.000,-733.887,-634.766,-519.043
1669195274.912,-71.289,702.148,759.277,-80.566
1669195274.916,-905.762,-948.242,994.629,518.555
1669195274.920,746.094,-388.184,-463.379,409.180
1669195274.923,-644.043,-1000.000,-1000.000,-339.355
1669195274.927,-1000.000,-822.266,-848.633,-541.992
1669195274.931,-403.809,566.895,583.496,-144.531
1669195274.935,955.566,-860.352,-936.035,452.637
1669195274.939,761.230,-213.867,-425.781,438.965
1669195274.926,-615.723,-1000.000,-1000.000,-261.230
1669195274.930,-1000.000,-831.055,-822.266,-550.781
1669195274.934,-672.852,508.789,507.812,-223.145
1669195274.938,815.430,-813.965,-841.309,375.000
1669195274.942,914.062,212.891,206.055,497.070
1669195274.946,-597.656,-1000.000,-1000.000,-198.242
1669195274.950,-1000.000,-911.621,-883.301,-572.754
1669195274.953,-793.457,467.773,520.020,-290.039
1669195274.957,670.898,-816.406,-831.055,287.109
1669195274.961,993.164,541.016,599.121,529.297
1669195274.965,-527.832,-870.117,-832.520,-81.543
1669195274.969,-1000.000,-1000.000,-1000.000,-547.852
1669195274.971,-844.727,356.445,354.980,-349.609
1669195274.975,567.383,-835.938,-827.637,217.285
1669195274.979,-908.203,697.266,636.230,580.566
1669195274.983,-360.840,-699.219,-763.184,49.316
1669195274.987,-1000.000,-1000.000,-1000.000,-500.000
1669195274.991,-850.098,119.141,107.910,-372.559
1669195274.995,508.789,-880.371,-848.633,159.180
1669195274.998,-836.914,794.922,692.383,581.543
1669195275.002,-80.078,-564.453,-706.543,135.254
1669195275.006,-1000.000,-1000.000,-1000.000,-481.934
1669195275.010,-910.156,-254.395,-66.406,-445.312
1669195275.014,402.832,-979.980,-912.109,60.059
1669195275.032,-799.316,844.727,793.945,575.684
1669195275.036,275.879,-559.570,-597.168,234.863
1669195275.040,-975.586,-1000.000,-1000.000,-451.660
1669195275.044,-1000.000,-572.754,-286.621,-501.465
1669195275.048,229.980,873.535,992.188,-29.297
1669195275.052,-810.547,917.969,889.648,554.688
1669195275.056,552.734,-551.758,-505.859,325.684
1669195275.059,-806.641,-1000.000,-1000.000,-415.527
1669195275.063,-1000.000,-722.656,-634.766,-537.109
1669195275.067,-68.359,714.355,760.254,-93.750
1669195275.071,-901.855,-952.637,991.699,504.395
1669195275.075,737.305,-391.113,-467.773,401.367
1669195275.077,-656.738,-1000.000,-1000.000,-338.379
1669195275.081,-1000.000,-815.918,-847.656,-538.574
1669195275.085,-380.371,565.430,583.008,-146.484
1669195275.089,970.703,-857.910,-933.105,462.402
1669195275.093,853.516,-154.297,-418.457,489.746
1669195275.097,-583.008,-1000.000,-1000.000,-253.418
1669195275.101,-1000.000,-842.773,-827.637,-541.016
1669195275.104,-638.672,517.578,515.137,-187.988
1669195275.108,831.543,-819.336,-847.656,397.949
1669195275.112,908.691,163.086,120.117,528.320
1669195275.116,-595.703,-1000.000,-1000.000,-166.016
1669195275.120,-1000.000,-893.066,-870.605,-551.758
1669195275.121,-795.410,484.375,515.137,-278.809
1669195275.125,671.875,-814.453,-829.102,297.852
1669195275.129,986.816,515.137,590.332,543.945
1669195275.133,-539.062,-882.812,-836.426,-83.496
1669195275.137,-1000.000,-1000.000,-1000.000,-550.781
1669195275.141,-842.285,342.285,347.656,-346.191
1669195275.145,573.242,-834.961,-827.148,207.520
1669195275.148,-914.551,697.754,634.766,561.523
1669195275.152,-373.047,-708.984,-766.113,19.531
1669195275.156,-1000.000,-1000.000,-1000.000,-542.480
1669195275.160,-846.680,168.945,115.723,-411.621
1669195275.164,517.090,-869.141,-844.238,139.648
1669195275.167,-841.797,784.180,681.152,585.449
1669195275.171,-102.539,-576.660,-724.121,125.000
1669195275.175,-1000.000,-1000.000,-1000.000,-498.535
1669195275.179,-900.391,-185.059,-26.367,-441.406
1669195275.183,416.504,-957.520,-900.391,72.266
1669195275.187,-801.758,834.473,784.180,553.711
1669195275.191,268.066,-554.688,-599.121,191.895
1669195275.194,-984.375,-1000.000,-1000.000,-473.633
1669195275.198,-1000.000,-550.293,-290.039,-509.766
1669195275.202,270.020,885.742,990.234,-32.227
1669195275.206,-807.129,917.969,894.531,536.133
1669195275.210,547.363,-543.457,-499.023,299.316
1669195275.211,-816.895,-1000.000,-1000.000,-422.852
1669195275.215,-1000.000,-715.820,-595.215,-542.969
1669195275.219,7.812,731.445,793.457,-105.469
1669195275.223,-882.324,-971.680,982.422,491.211
1669195275.227,723.145,-427.246,-468.750,371.582
1669195275.231,-659.668,-1000.000,-1000.000,-363.770
1669195275.235,-1000.000,-814.453,-839.355,-558.594
1669195275.238,-346.680,568.848,590.332,-163.574
1669195275.242,983.887,-862.305,-938.965,452.637
1669195275.246,848.145,-179.199,-427.246,458.008
1669195275.250,-582.031,-1000.000,-1000.000,-275.879
1669195275.254,-1000.000,-838.867,-825.195,-553.223
1669195275.257,-595.703,514.160,512.207,-212.402
1669195275.261,859.375,-816.895,-845.703,383.789
1669195275.265,905.762,183.105,153.809,506.348
1669195275.269,-597.168,-1000.000,-1000.000,-203.613
1669195275.273,-1000.000,-896.484,-875.000,-580.078
1669195275.277,-671.387,488.281,519.531,-243.652
1669195275.281,732.422,-814.453,-830.566,338.379
1669195275.284,963.867,479.004,583.008,548.828
1669195275.288,-531.250,-910.645,-859.375,-108.887
1669195275.292,-1000.000,-1000.000,-1000.000,-585.449
1669195275.296,-836.914,382.812,421.387,-364.746
1669195275.300,581.543,-833.984,-830.078,226.562
1669195275.303,-918.945,686.035,633.301,569.336
1669195275.307,-378.418,-715.332,-763.184,5.859
1669195275.311,-1000.000,-1000.000,-1000.000,-533.691
1669195275.315,-842.773,158.203,119.141,-399.414
1669195275.319,527.832,-870.117,-845.215,148.438
1669195275.323,-846.680,784.668,685.059,580.078
1669195275.327,-127.441,-580.566,-722.168,122.070
1669195275.330,-1000.000,-1000.000,-1000.000,-490.723
1669195275.334,-889.160,-163.574,-10.742,-441.406
1669195275.338,434.082,-951.172,-896.484,80.566
1669195275.342,-803.223,832.520,780.762,591.309
1669195275.346,242.676,-553.711,-604.004,232.910
1669195275.347,-995.605,-1000.000,-1000.000,-448.242
1669195275.351,-1000.000,-524.414,-252.930,-486.328
1669195275.355,282.227,900.879,-991.699,5.371
1669195275.359,-805.176,908.203,878.418,566.406
1669195275.363,537.109,-551.270,-513.184,310.059
1669195275.367,-828.613,-1000.000,-1000.000,-404.785
1669195275.371,-1000.000,-744.629,-631.836,-503.906
1669195275.374,54.688,698.730,760.254,-79.590
1669195275.378,-868.652,-958.496,991.211,505.859
1669195275.382,708.496,-415.039,-469.238,379.883
1669195275.386,-672.363,-1000.000,-1000.000,-355.957
1669195275.390,-1000.000,-812.500,-838.379,-546.387
1669195275.407,-290.527,576.660,594.238,-150.391
1669195275.411,-993.164,-867.188,-945.312,468.262
1669195275.415,835.938,-195.801,-441.895,456.055
1669195275.419,-581.543,-1000.000,-1000.000,-283.691
1669195275.423,-1000.000,-838.867,-829.590,-553.711
1669195275.427,-591.797,515.625,517.578,-199.219
1669195275.431,862.305,-819.336,-852.051,400.391
1669195275.434,899.414,154.297,69.824,508.789
1669195275.438,-589.844,-1000.000,-1000.000,-189.941
1669195275.442,-1000.000,-886.230,-862.793,-567.871
1669195275.446,-760.254,494.141,513.672,-292.480
1669195275.450,713.867,-815.430,-829.102,323.730
1669195275.451,968.262,492.188,584.961,552.246
1669195275.455,-554.199,-904.297,-853.027,-122.070
1669195275.459,-1000.000,-1000.000,-1000.000,-563.965
1669195275.463,-833.496,382.812,402.832,-337.402
1669195275.467,589.844,-830.078,-828.613,237.305
1669195275.471,-926.758,665.527,630.859,580.566
1669195275.475,-395.508,-742.676,-770.020,7.812
1669195275.478,-1000.000,-1000.000,-1000.000,-535.645
1669195275.482,-843.750,195.801,135.254,-391.113
1669195275.486,530.273,-865.723,-840.820,168.945
1669195275.490,-851.074,780.762,672.852,585.938
1669195275.494,-155.762,-577.637,-729.004,104.004
1669195275.497,-1000.000,-1000.000,-1000.000,-503.906
1669195275.501,-882.324,-170.898,-33.691,-434.082
1669195275.505,444.824,-953.125,-900.879,103.516
1669195275.509,-805.176,833.496,782.227,597.168
1669195275.513,196.289,-554.199,-607.422,203.125
1669195275.517,-1000.000,-1000.000,-1000.000,-467.285
1669195275.521,-992.676,-520.996,-249.023,-477.539
1669195275.524,300.293,903.809,-987.305,12.695
1669195275.528,-800.781,903.809,871.582,570.312
1669195275.532,513.672,-553.711,-522.461,309.570
1669195275.536,-841.797,-1000.000,-1000.000,-404.785
1669195275.540,-1000.000,-700.684,-562.500,-500.488
1669195275.541,46.387,744.629,818.359,-49.805
1669195275.545,-865.723,-974.609,975.098,534.180
1669195275.549,692.871,-423.828,-467.285,392.090
1669195275.553,-690.430,-1000.000,-1000.000,-346.191
1669195275.557,-1000.000,-807.129,-835.449,-495.605
1669195275.561,-288.086,585.449,596.191,-103.027
1669195275.565,-990.234,-872.559,-946.289,493.164
1669195275.568,829.590,-212.891,-442.383,490.723
1669195275.572,-589.355,-1000.000,-1000.000,-241.699
1669195275.576,-1000.000,-840.332,-834.961,-501.953
1669195275.580,-569.824,518.066,525.391,-160.645
1669195275.584,875.000,-823.242,-859.375,447.754
1669195275.586,895.020,105.469,-33.203,567.383
1669195275.590,-588.867,-1000.000,-1000.000,-137.695
1669195275.594,-1000.000,-880.371,-848.145,-489.746
1669195275.598,-766.113,491.699,506.348,-195.801
1669195275.602,712.402,-813.477,-825.684,385.742
1669195275.606,961.914,459.961,571.777,601.562
1669195275.610,-567.383,-921.387,-862.305,-38.574
1669195275.613,-1000.000,-1000.000,-1000.000,-482.910
1669195275.617,-831.543,385.254,401.855,-262.695
1669195275.621,598.145,-829.590,-828.613,301.758
1669195275.625,-938.965,666.016,630.371,624.512
1669195275.629,-420.898,-745.605,-771.973,56.641
1669195275.632,-1000.000,-1000.000,-1000.000,-484.375
1669195275.636,-843.750,212.891,143.555,-321.289
1669195275.640,534.668,-862.305,-839.355,238.770
1669195275.644,-857.422,776.367,668.457,653.809
1669195275.648,-187.988,-580.566,-732.910,164.551
1669195275.652,-1000.000,-1000.000,-1000.000,-443.848
1669195275.656,-879.883,-161.621,-31.738,-374.023
1669195275.659,447.266,-950.195,-898.926,150.879
1669195275.663,-807.617,832.031,775.391,646.484
1669195275.667,165.039,-553.223,-611.816,255.371
1669195275.671,-1000.000,-1000.000,-1000.000,-412.598
1669195275.675,-981.445,-525.879,-283.203,-411.133
1669195275.677,315.430,903.809,-999.023,72.266
1669195275.681,-798.828,900.391,874.023,610.840
1669195275.685,479.980,-560.547,-529.785,343.262
1669195275.689,-862.793,-1000.000,-1000.000,-363.281
1669195275.693,-1000.000,-693.359,-551.270,-464.355
1669195275.697,67.871,759.766,829.590,-23.438
1669195275.701,-857.422,-992.676,968.750,572.754
1669195275.704,678.223,-453.613,-475.098,418.457
1669195275.708,-703.125,-1000.000,-1000.000,-332.520
1669195275.712,-1000.000,-798.828,-821.289,-511.719
1669195275.716,-274.902,598.145,610.352,-111.816
1669195275.720,-984.375,-880.371,-957.520,480.469
1669195275.737,824.707,-237.305,-457.520,456.055
1669195275.741,-592.773,-1000.000,-1000.000,-279.785
1669195275.745,-1000.000,-839.355,-834.961,-538.086
1669195275.749,-544.922,519.043,533.203,-176.758
1669195275.753,889.160,-824.707,-864.746,430.664
1669195275.757,890.625,79.102,-84.961,538.086
1669195275.761,-585.449,-1000.000,-1000.000,-169.434
1669195275.764,-1000.000,-871.582,-841.797,-530.273
1669195275.768,-744.629,501.465,504.883,-238.770
1669195275.772,736.816,-812.988,-826.172,365.723
1669195275.776,951.660,422.852,543.945,584.473
1669195275.780,-574.707,-943.359,-885.742,-83.008
1669195275.767,-1000.000,-989.258,-987.793,-521.973
1669195275.771,-834.961,402.832,445.801,-279.297
1669195275.775,598.633,-826.172,-829.102,289.551
1669195275.779,-946.777,645.508,623.535,603.516
1669195275.783,-437.012,-762.207,-773.438,27.344
1669195275.787,-1000.000,-1000.000,-1000.000,-505.859
1669195275.791,-845.703,207.031,136.719,-352.051
1669195275.794,538.574,-860.352,-836.914,196.777
1669195275.798,-865.234,770.020,658.691,595.703
1669195275.802,-223.633,-601.074,-747.070,96.680
1669195275.806,-1000.000,-1000.000,-1000.000,-509.766
1669195275.810,-872.559,-86.426,-8.789,-430.664
1669195275.827,458.496,-929.688,-891.602,104.004
1669195275.831,-811.035,824.707,766.113,611.328
1669195275.835,121.582,-551.270,-628.418,217.285
1669195275.839,-1000.000,-1000.000,-1000.000,-462.402
1669195275.843,-976.074,-445.312,-195.801,-472.656
1669195275.847,312.988,942.383,-966.309,18.555
1669195275.851,-797.852,884.277,855.957,567.383
1669195275.854,460.938,-556.641,-529.297,285.645
1669195275.858,-877.441,-1000.000,-1000.000,-413.574
1669195275.862,-1000.000,-689.941,-543.457,-489.258
1669195275.866,98.633,764.648,836.426,-37.598
1669195275.870,-848.145,-995.117,968.262,556.641
1669195275.887,660.645,-456.055,-473.145,396.484
1669195275.891,-720.215,-1000.000,-1000.000,-346.191
1669195275.895,-1000.000,-795.410,-802.734,-517.090
1669195275.899,-230.957,608.398,623.047,-112.305
1669195275.903,-967.285,-889.648,-962.402,482.422
1669195275.907,810.547,-270.508,-458.008,432.129
1669195275.911,-598.145,-1000.000,-1000.000,-302.734
1669195275.914,-1000.000,-832.520,-834.961,-547.852
1669195275.918,-549.316,521.484,537.109,-186.523
1669195275.922,887.207,-825.195,-868.164,420.898
1669195275.926,891.602,78.125,-107.422,501.953
1669195275.930,-585.449,-1000.000,-1000.000,-225.098
1669195275.916,-1000.000,-868.164,-838.379,-571.777
1669195275.920,-735.840,506.348,503.906,-264.160
1669195275.924,745.605,-813.477,-826.660,332.520
1669195275.928,944.824,419.922,549.316,532.227
1669195275.932,-581.055,-947.266,-886.230,-116.699
1669195275.936,-1000.000,-984.375,-980.957,-541.016
1669195275.940,-823.730,410.645,460.938,-296.875
1669195275.943,614.746,-826.660,-831.055,278.809
1669195275.947,-955.566,644.043,625.488,588.379
1669195275.951,-448.730,-779.785,-784.180,0.000
1669195275.955,-1000.000,-1000.000,-1000.000,-530.273
1669195275.959,-846.680,286.621,200.684,-359.375
1669195275.962,540.039,-849.609,-831.543,204.102
1669195275.966,-869.141,756.836,652.344,590.820
1669195275.970,-237.793,-596.191,-742.676,96.191
1669195275.974,-1000.000,-1000.000,-1000.000,-474.121
1669195275.978,-867.676,-115.723,0.488,-395.508
1669195275.982,470.703,-941.406,-897.949,118.652
1669195275.986,-815.430,832.031,775.391,583.984
1669195275.989,85.449,-555.176,-624.023,180.176
1669195275.993,-1000.000,-1000.000,-1000.000,-468.750
1669195275.997,-956.543,-415.527,-177.246,-473.145
1669195276.001,342.773,958.008,-959.961,30.273
1669195276.005,-797.852,875.000,851.562,585.449
1669195276.007,439.941,-560.547,-533.691,273.438
1669195276.011,-889.160,-1000.000,-1000.000,-443.359
1669195276.015,-1000.000,-653.320,-451.172,-502.441
1669195276.019,119.629,797.852,897.461,-44.434
1669195276.023,-842.285,985.840,948.730,544.434
1669195276.027,650.879,-474.609,-469.238,381.836
1669195276.031,-732.910,-1000.000,-1000.000,-354.004
1669195276.034,-1000.000,-795.898,-799.805,-520.996
1669195276.038,-173.340,608.398,625.977,-106.445
1669195276.042,-947.266,-890.625,-963.379,507.812
1669195276.046,795.410,-276.855,-458.008,451.172
1669195276.050,-605.469,-1000.000,-1000.000,-291.992
1669195276.067,-1000.000,-832.520,-836.426,-528.809
1669195276.071,-503.906,531.738,542.969,-176.270
1669195276.075,910.645,-832.031,-873.535,428.223
1669195276.079,883.301,4.395,-155.762,500.977
1669195276.083,-582.031,-1000.000,-1000.000,-231.934
1669195276.087,-1000.000,-853.516,-832.031,-570.312
1669195276.091,-725.098,508.789,501.465,-265.625
1669195276.094,757.324,-813.477,-825.195,332.031
1669195276.098,938.965,403.320,537.109,523.926
1669195276.102,-585.449,-960.449,-896.484,-134.766
1669195276.106,-1000.000,-968.750,-969.727,-555.664
1669195276.110,-819.824,433.594,477.051,-321.777
1669195276.098,626.953,-825.684,-831.543,260.742
1669195276.102,-971.191,633.789,625.000,567.871
1669195276.106,-476.074,-789.551,-784.180,-16.602
1669195276.110,-1000.000,-1000.000,-1000.000,-534.180
1669195276.114,-845.215,291.992,200.684,-367.676
1669195276.118,546.875,-848.633,-833.496,190.430
1669195276.122,-877.441,754.395,652.344,588.867
1669195276.125,-270.020,-619.141,-754.883,78.613
1669195276.129,-1000.000,-1000.000,-1000.000,-511.719
1669195276.133,-867.676,-3.418,46.875,-405.273
1669195276.137,469.727,-908.203,-878.418,133.789
1669195276.141,-817.871,814.941,757.324,599.609
1669195276.142,50.293,-546.387,-631.348,180.176
1669195276.146,-1000.000,-1000.000,-1000.000,-485.352
1669195276.150,-948.242,-409.180,-165.527,-489.746
1669195276.154,353.027,963.379,-955.566,-0.977
1669195276.158,-796.387,868.652,847.168,533.203
1669195276.162,395.508,-568.848,-537.109,246.582
1669195276.166,-914.551,-1000.000,-1000.000,-433.594
1669195276.169,-1000.000,-638.672,-436.523,-505.371
1669195276.173,145.020,812.988,906.738,-44.434
1669195276.177,-833.008,973.145,943.359,545.410
1669195276.181,628.906,-490.234,-474.121,353.027
1669195276.185,-746.582,-1000.000,-1000.000,-387.695
1669195276.202,-1000.000,-775.391,-769.043,-543.945
1669195276.206,-191.406,636.230,650.391,-113.770
1669195276.210,-949.707,-902.832,-973.633,494.141
1669195276.214,789.551,-303.711,-463.379,427.734
1669195276.218,-616.699,-1000.000,-1000.000,-296.387
1669195276.222,-1000.000,-833.008,-840.332,-525.879
1669195276.226,-495.117,530.273,551.758,-164.551
1669195276.229,915.039,-834.473,-886.719,415.527
1669195276.233,881.836,-14.160,-229.980,474.609
1669195276.237,-580.566,-1000.000,-1000.000,-230.469
1669195276.241,-1000.000,-850.586,-825.195,-574.219
1669195276.245,-709.473,515.137,499.023,-263.672
1669195276.247,772.949,-813.477,-826.660,334.961
1669195276.251,929.688,353.516,505.859,511.230
1669195276.255,-593.262,-984.375,-916.992,-150.391
1669195276.259,-1000.000,-958.984,-955.078,-570.801
1669195276.263,-813.477,448.242,521.973,-304.688
1669195276.267,630.859,-823.242,-830.566,285.645
1669195276.271,918.945,498.047,419.922,492.676
1669195276.274,-529.297,-846.191,-863.281,-69.824
1669195276.278,-1000.000,-1000.000,-1000.000,-517.578
1669195276.282,-854.492,268.066,174.805,-354.004
1669195276.286,556.641,-844.238,-828.613,193.359
1669195276.290,-889.160,750.977,653.809,566.406
1669195276.307,-311.523,-630.859,-755.859,56.641
1669195276.311,-1000.000,-1000.000,-1000.000,-519.531
1669195276.315,-855.957,43.945,62.988,-409.180
1669195276.319,488.281,-899.902,-871.582,129.395
1669195276.323,-850.586,708.008,634.766,562.988
1669195276.327,-15.625,-585.938,-695.801,171.387
1669195276.331,-1000.000,-1000.000,-1000.000,-452.148
1669195276.334,-942.871,-371.582,-132.812,-462.402
1669195276.338,354.492,983.887,-936.523,32.227
1669195276.342,-795.898,859.863,829.590,562.500
1669195276.346,361.816,-567.871,-551.758,245.117
1669195276.350,-934.082,-1000.000,-1000.000,-442.871
1669195276.352,-1000.000,-627.441,-406.738,-489.746
1669195276.356,178.711,824.219,928.223,-23.438
1669195276.360,-822.266,962.891,935.059,543.457
1669195276.364,597.656,-502.441,-476.074,344.238
1669195276.368,-772.949,-1000.000,-1000.000,-369.141
1669195276.372,-1000.000,-771.484,-749.023,-514.160
1669195276.376,-137.695,646.484,666.992,-102.051
1669195276.379,-929.688,-913.086,-979.492,508.789
1669195276.383,771.484,-328.613,-465.332,422.363
1669195276.387,-624.512,-1000.000,-1000.000,-323.730
1669195276.391,-1000.000,-828.613,-844.238,-550.781
1669195276.395,-482.910,538.086,565.430,-170.898
1669195276.411,921.875,-839.355,-906.250,442.383
1669195276.415,877.441,-46.875,-325.195,480.469
1669195276.419,-582.520,-1000.000,-1000.000,-244.141
1669195276.423,-1000.000,-848.145,-816.895,-554.199
1669195276.427,-692.871,514.648,495.117,-234.375
1669195276.431,790.527,-814.453,-826.172,349.609
1669195276.435,920.410,321.289,464.844,503.906
1669195276.438,-600.586,-1000.000,-941.895,-165.527
1669195276.442,-1000.000,-937.988,-923.340,-568.848
1669195276.446,-812.012,458.008,534.668,-320.801
1669195276.450,644.043,-821.777,-836.914,262.695
1669195276.454,-990.234,585.449,623.047,541.016
1669195276.426,-507.812,-831.543,-808.594,-68.848
1669195276.430,-1000.000,-1000.000,-1000.000,-563.477
1669195276.434,-847.656,324.219,322.266,-373.047
1669195276.438,556.641,-843.750,-826.660,193.848
1669195276.442,-895.508,732.422,639.648,564.453
1669195276.446,-333.008,-646.973,-754.883,34.668
1669195276.450,-1000.000,-1000.000,-1000.000,-533.691
1669195276.453,-853.027,34.668,59.082,-419.922
1669195276.457,500.000,-898.438,-869.629,111.328
1669195276.461,-831.055,809.082,736.816,570.312
1669195276.465,-47.363,-556.152,-662.598,143.555
1669195276.469,-1000.000,-1000.000,-1000.000,-499.023
1669195276.471,-922.363,-317.383,-97.656,-469.727
1669195276.475,379.883,998.047,-925.781,38.574
1669195276.479,-796.387,853.027,810.547,569.336
1669195276.483,336.914,-563.965,-578.125,241.699
1669195276.487,-945.801,-1000.000,-1000.000,-443.848
1669195276.491,-1000.000,-614.746,-332.520,-487.305
1669195276.495,187.988,833.496,964.355,-24.902
1669195276.498,-818.848,958.008,921.875,550.781
1669195276.502,589.355,-504.395,-468.750,336.426
1669195276.506,-784.180,-1000.000,-1000.000,-398.438
1669195276.510,-1000.000,-759.766,-722.656,-531.250
1669195276.514,-90.820,662.598,692.383,-100.586
1669195276.561,-912.109,-920.410,-984.375,505.371
1669195276.565,751.953,-339.844,-462.891,432.129
1669195276.569,-641.113,-1000.000,-1000.000,-308.105
1669195276.573,-1000.000,-829.102,-847.168,-532.715
1669195276.577,-424.805,544.434,571.777,-161.621
1669195276.581,950.195,-846.680,-916.992,453.613
1669195276.585,864.258,-93.750,-368.652,492.676
1669195276.588,-581.055,-1000.000,-1000.000,-249.023
1669195276.592,-1000.000,-842.773,-815.918,-547.852
1669195276.596,-681.641,511.719,496.582,-212.891
1669195276.600,800.293,-813.965,-830.078,361.328
1669195276.604,917.480,314.941,406.250,518.555
1669195276.606,-599.121,-1000.000,-960.938,-155.273
1669195276.610,-1000.000,-931.641,-913.574,-556.152
1669195276.614,-803.223,467.285,533.203,-301.270
1669195276.618,659.180,-822.266,-836.426,279.785
1669195276.622,998.047,582.031,624.512,556.152
1669195276.626,-523.438,-836.914,-808.594,-49.316
1669195276.630,-1000.000,-1000.000,-1000.000,-531.250
1669195276.633,-845.215,335.449,329.102,-340.820
1669195276.637,563.477,-841.309,-827.637,226.074
1669195276.641,-902.832,720.215,641.113,586.426
1669195276.645,-347.656,-665.039,-758.789,41.504
1669195276.649,-1000.000,-1000.000,-1000.000,-521.484
1669195276.636,-851.074,62.988,97.168,-405.762
1669195276.640,506.348,-890.625,-854.492,154.785
1669195276.644,-834.473,799.805,714.355,600.586
1669195276.648,-68.359,-558.594,-679.688,130.371
1669195276.652,-1000.000,-1000.000,-1000.000,-494.629
1669195276.656,-916.992,-332.031,-55.664,-450.195
1669195276.660,391.602,987.793,-933.594,37.598
1669195276.663,-798.340,858.398,815.918,539.551
1669195276.667,288.574,-566.406,-578.613,206.055
1669195276.671,-969.727,-1000.000,-1000.000,-487.305
1669195276.675,-1000.000,-584.473,-308.105,-545.410
1669195276.679,219.727,858.398,978.027,-80.566
1669195276.668,-813.477,937.988,910.645,496.094
1669195276.672,567.871,-525.391,-479.980,256.348
1669195276.676,-794.922,-1000.000,-1000.000,-490.723
1669195276.680,-1000.000,-747.559,-651.855,-618.652
1669195276.684,-90.820,683.594,745.117,-188.477
1669195276.688,-910.156,-937.500,999.023,406.250
1669195276.692,746.094,-371.582,-462.402,291.016
1669195276.695,-650.879,-1000.000,-1000.000,-440.918
1669195276.699,-1000.000,-823.242,-844.727,-658.203
1669195276.703,-389.160,550.293,572.266,-291.504
1669195276.707,965.820,-848.633,-915.039,325.684
1669195276.711,855.957,-103.027,-357.422,366.699
1669195276.712,-583.008,-1000.000,-1000.000,-343.262
1669195276.716,-1000.000,-844.727,-823.730,-660.156
1669195276.720,-638.184,515.137,506.836,-320.312
1669195276.724,830.078,-815.430,-837.402,286.621
1669195276.728,909.180,246.582,273.926,420.410
1669195276.732,-595.703,-1000.000,-1000.000,-304.199
1669195276.736,-1000.000,-917.480,-893.066,-672.363
1669195276.739,-793.457,468.750,525.879,-357.910
1669195276.743,671.387,-818.359,-834.961,221.680
1669195276.747,991.699,558.105,617.676,471.680
1669195276.751,-529.785,-855.957,-820.801,-146.973
1669195276.755,-1000.000,-1000.000,-1000.000,-609.863
1669195276.757,-842.285,347.168,364.746,-394.531
1669195276.761,573.242,-840.332,-829.590,156.738
1669195276.765,-913.574,715.332,641.602,499.023
1669195276.769,-371.582,-680.664,-760.254,-35.645
1669195276.773,-1000.000,-1000.000,-1000.000,-577.148
1669195276.777,-852.051,127.930,123.047,-439.453
1669195276.781,516.602,-877.930,-848.145,123.047
1669195276.784,-840.820,792.969,698.242,578.125
1669195276.788,-156.738,-568.359,-706.543,89.844
1669195276.792,-1000.000,-1000.000,-1000.000,-518.555
1669195276.796,-898.926,-232.910,-13.184,-457.031
1669195276.800,398.438,-973.633,-902.344,38.086
1669195276.802,-798.340,841.309,796.875,553.711
1669195276.806,261.719,-558.105,-583.496,200.684
1669195276.810,-981.934,-1000.000,-1000.000,-482.910
1669195276.814,-1000.000,-576.172,-255.859,-512.695
1669195276.818,235.840,867.188,996.582,-36.133
1669195276.822,-808.594,928.223,905.762,533.691
1669195276.826,540.039,-537.109,-471.191,313.477
1669195276.829,-820.312,-1000.000,-1000.000,-405.762
1669195276.833,-1000.000,-723.145,-594.238,-531.738
1669195276.837,-30.762,714.844,791.992,-98.145
1669195276.841,-890.625,-953.125,984.863,501.953
1669195276.845,724.121,-392.090,-463.867,395.020
1669195276.847,-665.039,-1000.000,-1000.000,-338.867
1669195276.851,-1000.000,-814.453,-831.055,-543.457
1669195276.855,-362.793,562.500,586.426,-157.715
1669195276.859,977.539,-854.004,-922.363,450.195
1669195276.863,849.609,-125.000,-375.000,458.984
1669195276.867,-583.984,-1000.000,-1000.000,-276.367
1669195276.871,-1000.000,-843.750,-821.777,-557.617
1669195276.874,-619.629,515.625,504.395,-221.191
1669195276.878,842.773,-816.406,-836.426,372.070
1669195276.882,905.273,215.332,280.762,520.996
1669195276.886,-593.750,-1000.000,-1000.000,-147.461
1669195276.890,-1000.000,-902.344,-893.066,-554.688
1669195276.906,-783.691,485.352,528.809,-309.570
1669195276.910,687.012,-815.918,-835.449,298.340
1669195276.914,979.004,520.508,608.887,541.016
1669195276.918,-547.363,-882.812,-835.938,-101.562
1669195276.922,-1000.000,-1000.000,-1000.000,-561.523
1669195276.926,-842.285,355.469,404.785,-345.215
1669195276.930,575.195,-835.449,-830.566,221.680
1669195276.933,-918.457,696.777,636.719,567.871
1669195276.937,-382.324,-701.172,-760.742,10.742
1669195276.941,-1000.000,-1000.000,-1000.000,-533.203
1669195276.945,-847.168,130.859,117.676,-404.297
1669195276.949,521.484,-877.930,-850.586,135.254
1669195276.966,-846.191,795.410,707.031,583.008
1669195276.970,-134.277,-569.336,-696.777,123.047
1669195276.974,-1000.000,-1000.000,-1000.000,-500.488
1669195276.978,-895.508,-193.848,-16.113,-465.820
1669195276.982,421.875,-959.961,-899.414,38.086
1669195276.986,-802.246,835.938,786.621,548.340
1669195276.990,231.445,-555.176,-598.633,195.312
1669195276.993,-997.070,-1000.000,-1000.000,-470.703
1669195276.997,-1000.000,-544.434,-247.559,-494.629
1669195277.001,260.254,887.207,-995.605,-2.930
1669195277.005,-804.688,920.410,893.555,561.523
1669195277.009,526.367,-537.109,-487.305,312.500
1669195276.996,-831.543,-1000.000,-1000.000,-406.738
1669195277.000,-1000.000,-717.773,-583.496,-503.418
1669195277.004,4.883,727.051,799.316,-36.621
1669195277.008,-877.441,-966.309,981.445,531.738
1669195277.012,703.613,-417.480,-465.820,403.809
1669195277.016,-684.570,-1000.000,-1000.000,-312.500
1669195277.020,-1000.000,-815.430,-840.332,-516.113
1669195277.023,-326.172,574.707,592.285,-128.418
1669195277.027,992.676,-869.141,-943.848,481.934
1669195277.031,840.820,-205.566,-438.965,460.449
1669195277.035,-584.473,-1000.000,-1000.000,-271.484
1669195277.039,-1000.000,-837.891,-825.195,-536.621
1669195277.042,-617.676,514.648,519.531,-201.660
1669195277.046,843.750,-818.848,-850.098,382.324
1669195277.050,917.480,158.203,98.633,509.766
1669195277.054,-604.492,-1000.000,-1000.000,-168.457
1669195277.058,-1000.000,-892.090,-867.676,-516.113
1669195277.062,-479.980,486.816,514.160,-131.348
1669195277.066,831.055,-814.453,-829.590,408.203
1669195277.069,915.039,486.328,587.402,599.121
1669195277.073,-536.621,-909.180,-855.957,7.812
1669195277.077,-1000.000,-1000.000,-1000.000,-453.613
1669195277.081,-833.984,391.113,419.922,-229.004
1669195277.085,589.355,-832.031,-829.590,350.586
1669195277.088,-928.223,672.852,630.371,683.105
1669195277.092,-398.438,-735.840,-770.996,126.465
1669195277.096,-1000.000,-1000.000,-1000.000,-397.461
1669195277.100,-843.750,198.730,141.113,-247.559
1669195277.104,534.180,-863.770,-840.820,291.992
1669195277.108,-854.980,773.926,670.898,699.707
1669195277.112,-174.316,-581.055,-728.027,221.680
1669195277.115,-1000.000,-1000.000,-1000.000,-396.973
1669195277.119,-884.766,-201.660,-49.805,-353.516
1669195277.123,441.406,-962.402,-905.762,145.508
1669195277.127,-806.152,838.867,786.133,645.996
1669195277.131,166.504,-557.129,-607.910,276.855
1669195277.132,-1000.000,-1000.000,-1000.000,-386.230
1669195277.136,-991.211,-502.930,-235.840,-404.297
1669195277.140,291.992,913.086,-982.910,65.918
1669195277.144,-798.828,899.902,870.605,625.000
1669195277.148,490.723,-554.688,-521.484,370.605
1669195277.152,-851.074,-1000.000,-1000.000,-350.586
1669195277.156,-1000.000,-708.496,-557.129,-434.570
1669195277.159,17.090,736.816,818.359,20.020
1669195277.163,-870.117,-971.680,974.609,591.797
1669195277.167,689.453,-421.875,-466.797,447.266
1669195277.171,-701.172,-1000.000,-1000.000,-294.922
1669195277.175,-1000.000,-808.105,-838.867,-474.121
1669195277.177,-278.809,583.008,594.238,-84.961
1669195277.181,-986.328,-870.117,-946.777,499.023
1669195277.185,825.195,-204.590,-444.336,478.516
1669195277.189,-592.773,-1000.000,-1000.000,-266.602
1669195277.193,-1000.000,-841.797,-834.473,-547.852
1669195277.197,-570.312,519.531,530.273,-191.406
1669195277.201,874.512,-823.730,-862.305,421.387
1669195277.204,895.508,94.727,-55.176,530.273
1669195277.208,-588.379,-1000.000,-1000.000,-174.316
1669195277.212,-1000.000,-875.977,-844.727,-530.273
1669195277.216,-757.812,493.652,505.859,-245.117
1669195277.220,721.680,-814.941,-827.637,340.332
1669195277.222,957.520,483.398,580.566,567.871
1669195277.226,-571.289,-913.086,-864.258,-75.684
1669195277.230,-1000.000,-1000.000,-998.047,-517.090
1669195277.234,-832.520,402.832,439.941,-295.898
1669195277.238,601.074,-830.078,-830.566,276.367
1669195277.242,-946.289,659.180,630.859,605.957
1669195277.246,-435.547,-752.441,-772.949,34.668
1669195277.249,-1000.000,-1000.000,-1000.000,-504.395
1669195277.253,-844.727,215.820,158.203,-374.512
1669195277.257,536.621,-860.840,-838.867,163.086
1669195277.261,-861.816,770.020,664.062,573.730
1669195277.265,-208.984,-593.262,-742.188,96.680
1669195277.282,-1000.000,-1000.000,-1000.000,-501.465
1669195277.286,-876.465,-128.418,6.836,-432.129
1669195277.290,451.172,-940.918,-890.625,116.211
1669195277.294,-809.082,828.125,770.508,589.844
1669195277.298,142.578,-551.270,-611.816,202.637
1669195277.302,-1000.000,-1000.000,-1000.000,-433.594
1669195277.306,-977.051,-511.230,-256.348,-442.383
1669195277.309,318.359,911.621,-988.770,29.297
1669195277.313,-798.340,895.996,869.629,567.383
1669195277.317,460.449,-562.500,-529.785,299.316
1669195277.321,-874.512,-1000.000,-1000.000,-414.062
1669195277.325,-1000.000,-678.711,-498.047,-505.859
1669195277.327,82.520,770.508,863.281,-48.828
1669195277.331,-853.027,-996.582,959.473,540.527
1669195277.335,670.410,-453.613,-470.215,384.277
1669195277.339,-710.938,-1000.000,-1000.000,-343.750
1669195277.343,-1000.000,-792.480,-796.387,-525.879
1669195277.347,-251.465,607.910,627.930,-141.602
1669195277.351,-976.074,-885.254,-961.426,457.520
1669195277.354,817.871,-250.488,-453.125,414.551
1669195277.358,-596.191,-1000.000,-1000.000,-321.777
1669195277.362,-1000.000,-837.891,-833.496,-556.641
1669195277.366,-536.133,518.066,529.297,-198.242
1669195277.370,892.578,-824.707,-861.816,400.391
1669195277.372,889.648,82.520,-47.363,501.953
1669195277.376,-584.961,-1000.000,-1000.000,-209.961
1669195277.380,-1000.000,-871.582,-846.191,-571.289
1669195277.384,-739.258,502.441,507.812,-272.461
1669195277.388,740.234,-813.965,-828.613,339.844
1669195277.392,948.730,427.246,566.895,545.898
1669195277.396,-577.148,-946.777,-884.277,-115.234
1669195277.399,-1000.000,-978.027,-967.773,-555.176
1669195277.403,-830.566,426.270,491.699,-310.059
1669195277.407,605.469,-831.055,-834.473,267.578
1669195277.411,-951.172,656.250,629.883,565.918
1669195277.415,-443.359,-769.043,-780.273,-11.230
1669195277.417,-1000.000,-1000.000,-1000.000,-537.109
1669195277.421,-844.727,293.945,203.613,-390.137
1669195277.425,540.527,-850.586,-835.449,162.598
1669195277.429,-866.699,761.719,663.086,572.754
1669195277.433,-226.562,-597.168,-738.770,84.473
1669195277.437,-1000.000,-1000.000,-1000.000,-504.883
1669195277.441,-867.676,-66.895,43.457,-428.711
1669195277.444,467.285,-931.152,-891.602,84.961
1669195277.448,-812.500,826.660,773.926,567.871
1669195277.452,114.258,-552.246,-623.535,195.801
1669195277.456,-1000.000,-1000.000,-1000.000,-450.684
1669195277.460,-965.332,-416.016,-139.160,-449.219
1669195277.462,333.008,956.543,-950.195,42.480
1669195277.466,-799.316,875.488,851.074,575.684
1669195277.470,457.520,-561.035,-524.902,289.062
1669195277.474,-884.277,-1000.000,-1000.000,-428.711
1669195277.478,-1000.000,-655.762,-438.477,-513.184
1669195277.482,141.602,793.457,901.855,-60.059
1669195277.486,-841.797,990.723,949.219,520.508
1669195277.489,657.227,-465.332,-464.844,357.422
1669195277.493,-726.074,-1000.000,-1000.000,-372.070
1669195277.497,-1000.000,-779.785,-771.484,-539.551
1669195277.501,-156.250,625.000,646.484,-152.344
1669195277.505,-945.312,-891.602,-967.285,450.684
1669195277.507,802.734,-263.672,-452.148,410.645
1669195277.511,-595.215,-1000.000,-1000.000,-333.008
1669195277.515,-1000.000,-833.496,-831.543,-567.383
1669195277.519,-470.703,528.320,540.039,-192.871
1669195277.523,926.758,-829.590,-868.164,405.273
1669195277.527,877.930,33.203,-96.191,477.539
1669195277.531,-578.125,-1000.000,-1000.000,-231.934
1669195277.534,-1000.000,-858.398,-839.355,-563.965
1669195277.538,-676.758,510.742,505.371,-260.254
1669195277.542,795.410,-813.965,-828.613,327.637
1669195277.546,934.570,403.320,563.965,539.551
1669195277.550,-571.777,-962.402,-891.602,-84.961
1669195277.552,-1000.000,-964.355,-953.613,-510.742
1669195277.556,-797.852,440.918,518.066,-287.109
1669195277.560,640.137,-825.195,-835.938,292.969
1669195277.564,-954.102,625.000,626.953,563.965
1669195277.568,-433.594,-790.527,-783.691,-24.414
1669195277.572,-1000.000,-1000.000,-1000.000,-551.758
1669195277.576,-839.355,263.672,216.309,-412.598
1669195277.579,546.387,-852.051,-834.473,133.301
1669195277.583,-866.699,759.766,656.738,520.508
1669195277.587,-216.797,-617.188,-750.977,1.953
1669195277.591,-1000.000,-1000.000,-1000.000,-600.586
1669195277.595,-851.562,-3.906,57.129,-521.484
1669195277.597,495.605,-908.691,-879.395,-3.418
1669195277.601,-816.895,815.430,768.555,490.234
1669195277.605,125.488,-547.363,-621.094,83.008
1669195277.609,-1000.000,-1000.000,-1000.000,-578.125
1669195277.613,-937.500,-392.090,-130.371,-569.824
1669195277.617,394.531,970.215,-945.801,-35.645
1669195277.621,-803.711,864.258,844.727,498.535
1669195277.624,462.891,-569.824,-534.668,177.246
1669195277.628,-889.160,-1000.000,-1000.000,-511.230
1669195277.632,-1000.000,-643.555,-386.719,-592.773
1669195277.636,213.379,806.641,936.035,-109.863
1669195277.640,-833.984,979.004,936.523,473.633
1669195277.657,662.109,-481.445,-466.309,276.367
1669195277.661,-724.121,-1000.000,-1000.000,-427.246
1669195277.665,-1000.000,-785.156,-753.418,-573.242
1669195277.669,-56.152,630.371,662.598,-144.043
1669195277.673,-917.480,-907.227,-976.074,456.055
1669195277.677,791.992,-322.754,-460.449,397.461
1669195277.681,-593.262,-1000.000,-1000.000,-344.727
1669195277.684,-1000.000,-830.078,-836.426,-612.305
1669195277.688,-380.859,532.715,548.828,-220.703
1669195277.692,965.820,-835.449,-879.883,404.785
1669195277.696,864.746,-23.438,-189.453,444.336
1669195277.700,-570.801,-1000.000,-1000.000,-282.227
1669195277.702,-1000.000,-848.633,-828.125,-602.051
1669195277.706,-617.188,513.184,500.000,-282.227
1669195277.710,834.961,-813.477,-826.660,315.430
1669195277.714,927.246,369.141,541.504,495.117
1669195277.718,-558.105,-975.098,-903.320,-182.617
1669195277.722,-1000.000,-963.867,-948.730,-605.957
1669195277.726,-754.883,429.688,518.066,-352.539
1669195277.729,683.594,-821.777,-835.449,229.980
1669195277.733,-960.938,609.863,627.441,520.020
1669195277.737,-422.363,-810.547,-792.969,-69.824
1669195277.741,-1000.000,-1000.000,-1000.000,-577.637
1669195277.745,-813.477,299.805,261.230,-413.574
1669195277.762,567.383,-843.750,-829.102,143.555
1669195277.766,-862.305,733.398,645.020,539.062
1669195277.770,-158.691,-639.648,-755.371,28.320
1669195277.774,-1000.000,-1000.000,-1000.000,-554.688
1669195277.778,-836.914,-16.113,56.152,-450.195
1669195277.782,514.160,-910.645,-876.953,115.723
1669195277.786,-817.383,815.430,759.766,551.270
1669195277.789,244.141,-550.293,-630.859,113.770
1669195277.793,-1000.000,-1000.000,-1000.000,-499.023
1669195277.797,-900.391,-391.602,-133.301,-480.469
1669195277.801,495.117,970.703,-946.289,6.348
1669195277.805,-825.684,864.746,844.727,552.246
1669195277.792,570.801,-569.824,-537.109,242.188
1669195277.796,-867.676,-1000.000,-1000.000,-475.586
1669195277.800,-1000.000,-633.301,-360.352,-557.617
1669195277.804,440.918,820.801,951.660,-92.285
1669195277.808,-852.539,961.426,929.199,505.859
1669195277.812,732.422,-508.301,-468.750,314.453
1669195277.816,-679.199,-1000.000,-1000.000,-408.203
1669195277.819,-1000.000,-775.879,-732.910,-562.012
1669195277.823,244.141,639.160,680.176,-150.879
1669195277.827,-866.211,-908.203,-979.980,467.773
1669195277.831,781.250,-320.801,-459.473,408.691
1669195277.835,-555.664,-1000.000,-1000.000,-335.938
1669195277.837,-1000.000,-833.984,-839.844,-566.406
1669195277.841,-296.875,533.203,553.223,-193.848
1669195277.845,-1000.000,-830.078,-878.906,415.527
1669195277.849,848.633,-65.430,-249.023,464.844
1669195277.853,-571.777,-1000.000,-1000.000,-262.207
1669195277.857,-1000.000,-651.367,-628.906,-547.852
1669195277.861,-824.707,588.867,575.195,-241.211
1669195277.864,661.133,-847.168,-861.328,346.191
1669195277.868,949.219,336.426,502.930,533.691
1669195277.872,-613.281,-1000.000,-936.035,-163.574
1669195277.876,-1000.000,-953.613,-927.246,-580.566
1669195277.880,-874.023,431.152,535.645,-319.336
1669195277.882,580.078,-818.848,-836.426,248.535
1669195277.886,-998.047,591.309,625.977,528.320
1669195277.890,-547.363,-816.895,-792.480,-62.988
1669195277.894,-1000.000,-1000.000,-1000.000,-556.641
1669195277.898,-832.520,275.391,257.324,-391.113
1669195277.902,526.367,-845.215,-830.566,158.691
1669195277.906,-847.168,741.211,650.391,528.320
1669195277.909,-104.004,-645.508,-757.324,17.090
1669195277.913,-1000.000,-1000.000,-1000.000,-559.570
1669195277.917,-825.684,56.152,93.750,-459.961
1669195277.921,517.578,-894.531,-863.281,87.891
1669195277.925,-818.359,805.664,737.305,548.340
1669195277.926,441.406,-550.781,-659.180,119.629
1669195277.930,-966.309,-1000.000,-1000.000,-522.949
1669195277.934,-916.016,-359.375,-64.941,-497.559
1669195277.938,534.668,982.422,-924.805,10.254
1669195277.942,-836.914,858.887,830.078,534.180
1669195277.946,614.746,-567.383,-538.086,217.773
1669195277.950,-831.055,-1000.000,-1000.000,-456.055
1669195277.953,-1000.000,-644.531,-364.258,-498.535
1669195277.957,415.039,812.500,950.195,-54.688
1669195277.961,-845.703,967.285,930.664,504.395
1669195277.965,713.867,-501.953,-467.285,305.176
1669195277.969,-671.387,-1000.000,-1000.000,-402.344
1669195277.972,-1000.000,-760.742,-675.293,-551.270
1669195277.976,86.914,659.668,726.074,-141.113
1669195277.980,-887.207,-917.480,-993.652,466.797
1669195277.984,787.598,-333.008,-458.984,398.926
1669195277.988,-562.988,-1000.000,-1000.000,-347.656
1669195277.992,-1000.000,-829.590,-841.309,-581.055
1669195277.996,-408.691,537.109,562.500,-199.707
1669195277.999,958.008,-839.844,-899.414,398.926
1669195278.003,866.211,-51.270,-289.062,450.684
1669195278.007,-574.707,-1000.000,-1000.000,-276.855
1669195278.011,-1000.000,-849.121,-821.289,-593.262
1669195278.015,-746.094,516.113,498.535,-277.832
1669195278.017,744.141,-814.941,-828.125,309.570
1669195278.021,935.059,292.969,455.566,476.562
1669195278.025,-599.609,-1000.000,-943.359,-198.730
1669195278.029,-1000.000,-937.500,-921.387,-588.867
1669195278.033,-828.125,450.195,535.645,-323.730
1669195278.037,618.652,-817.871,-837.402,267.090
1669195278.041,-970.703,565.430,623.047,543.457
1669195278.044,-479.980,-842.285,-812.500,-80.566
1669195278.048,-1000.000,-1000.000,-1000.000,-570.312
1669195278.052,-852.051,307.129,341.309,-371.094
1669195278.056,550.293,-841.797,-828.613,187.012
1669195278.060,-889.648,727.051,642.090,546.387
1669195278.077,-331.055,-652.832,-755.371,10.254
1669195278.081,-1000.000,-1000.000,-1000.000,-564.941
1669195278.085,-886.719,25.391,89.355,-446.777
1669195278.089,449.707,-899.414,-861.816,83.496
1669195278.093,-825.195,805.176,729.980,517.090
1669195278.097,-92.773,-559.570,-666.504,91.797
1669195278.101,-1000.000,-1000.000,-1000.000,-525.391
1669195278.104,-989.746,-347.168,-79.590,-483.398
1669195278.108,220.703,987.305,-920.898,35.156
1669195278.112,-790.039,857.422,809.082,576.660
1669195278.116,264.160,-566.406,-577.637,224.609
1669195278.120,-949.219,-1000.000,-1000.000,-473.145
1669195278.123,-1000.000,-618.164,-303.223,-511.230
1669195278.127,-65.430,838.379,977.539,-44.434
1669195278.131,-851.074,942.871,913.574,527.344
1669195278.135,546.875,-532.715,-473.145,306.641
1669195278.139,-809.570,-1000.000,-1000.000,-409.180
1669195278.143,-1000.000,-773.438,-699.707,-526.367
1669195278.147,-481.445,653.320,708.984,-104.004
1669195278.150,969.238,-928.711,-991.699,492.676
1669195278.154,756.348,-365.723,-465.820,403.809
1669195278.158,-716.309,-1000.000,-1000.000,-340.820
1669195278.162,-1000.000,-827.637,-846.680,-545.898
1669195278.166,-700.195,548.340,575.195,-153.320
1669195278.167,796.387,-849.609,-920.410,447.754
1669195278.171,909.180,-116.699,-381.348,469.238
1669195278.175,-613.281,-1000.000,-1000.000,-253.418
1669195278.179,-1000.000,-843.262,-821.289,-556.641
1669195278.183,-801.270,514.648,504.395,-217.773
1669195278.187,688.477,-814.941,-836.426,386.719
1669195278.191,943.848,241.211,282.715,516.602
1669195278.194,-610.352,-1000.000,-1000.000,-188.965
1669195278.198,-1000.000,-926.758,-894.531,-574.219
1669195278.202,-858.398,450.684,524.902,-312.988
1669195278.206,603.027,-816.406,-834.473,261.230
1669195278.210,997.070,557.617,619.629,537.109
1669195278.212,-550.781,-854.492,-818.848,-77.637
1669195278.216,-1000.000,-1000.000,-1000.000,-554.199
1669195278.220,-863.770,336.914,358.887,-347.168
1669195278.224,553.223,-838.867,-828.613,219.727
1669195278.228,-921.387,710.938,638.672,562.988
1669195278.232,-417.969,-675.781,-762.207,22.949
1669195278.236,-1000.000,-1000.000,-1000.000,-515.625
1669195278.239,-917.480,66.895,116.211,-384.766
1669195278.243,403.320,-890.137,-851.562,159.668
1669195278.247,-835.938,798.828,708.496,601.074
1669195278.251,-203.125,-564.941,-688.477,133.301
1669195278.255,-1000.000,-1000.000,-1000.000,-482.422
1669195278.257,-993.652,-294.922,-58.594,-437.012
1669195278.261,176.270,-994.141,-912.598,64.453
1669195278.265,-793.457,849.609,799.805,596.680
1669195278.269,167.480,-562.012,-586.426,247.559
1669195278.273,-984.375,-1000.000,-1000.000,-458.496
1669195278.277,-1000.000,-608.887,-294.922,-499.023
1669195278.281,-107.910,849.121,987.793,-10.254
1669195278.284,-854.980,932.617,895.508,572.266
1669195278.288,525.391,-543.457,-500.000,329.102
1669195278.292,-835.449,-1000.000,-1000.000,-402.344
1669195278.296,-1000.000,-743.164,-622.559,-507.324
1669195278.300,-409.668,690.918,769.531,-62.500
1669195278.302,998.047,-943.359,990.234,528.809
1669195278.306,760.742,-382.324,-465.332,408.691
1669195278.310,-693.359,-1000.000,-1000.000,-331.055
1669195278.314,-1000.000,-824.219,-847.656,-526.367
1669195278.318,-594.238,557.617,581.055,-150.879
1669195278.322,869.629,-856.445,-930.664,461.426
1669195278.326,888.672,-157.715,-411.621,491.211
1669195278.329,-603.516,-1000.000,-1000.000,-255.371
1669195278.333,-1000.000,-840.332,-823.730,-554.199
1669195278.337,-774.414,514.160,509.277,-209.961
1669195278.341,717.285,-815.918,-842.773,393.555
1669195278.345,937.500,205.078,194.824,528.809
1669195278.347,-608.398,-1000.000,-1000.000,-156.250
1669195278.351,-1000.000,-908.203,-880.859,-555.176
1669195278.355,-851.074,471.191,522.461,-288.574
1669195278.359,615.234,-814.941,-831.055,293.945
1669195278.363,988.770,528.809,594.727,528.809
1669195278.367,-561.523,-872.559,-833.496,-115.234
1669195278.371,-1000.000,-1000.000,-1000.000,-585.938
1669195278.374,-856.934,333.008,348.145,-388.672
1669195278.378,561.035,-836.426,-827.637,154.785
1669195278.382,-921.387,704.590,639.648,494.629
1669195278.386,-404.785,-699.219,-763.184,-71.777
1669195278.390,-1000.000,-1000.000,-1000.000,-634.277
1669195278.392,-879.883,155.273,121.582,-500.000
1669195278.396,468.262,-872.559,-846.191,41.992
1669195278.400,-834.473,791.992,694.336,475.586
1669195278.404,-168.457,-571.289,-716.309,15.137
1669195278.408,-1000.000,-1000.000,-1000.000,-618.652
1669195278.412,-849.121,-168.457,40.527,-535.156
1669195278.416,344.727,-950.684,-876.953,-6.348
1669195278.419,-807.129,830.566,774.414,501.465
1669195278.423,206.055,-552.734,-594.238,141.602
1669195278.427,-987.793,-1000.000,-1000.000,-540.527
1669195278.431,-1000.000,-557.129,-269.043,-562.012
1669195278.435,67.871,883.301,999.512,-79.590
1669195278.452,-820.312,916.504,890.137,485.352
1669195278.456,524.902,-548.828,-499.512,235.840
1669195278.460,-826.660,-1000.000,-1000.000,-477.051
1669195278.464,-1000.000,-724.609,-588.867,-584.473
1669195278.468,-232.910,722.168,795.410,-142.578
1669195278.472,-940.918,-968.262,982.910,476.562
1669195278.476,736.816,-424.805,-465.820,345.215
1669195278.479,-680.176,-1000.000,-1000.000,-411.621
1669195278.483,-1000.000,-814.941,-831.543,-591.309
1669195278.487,-514.160,569.336,596.680,-162.109
1669195278.491,916.016,-862.305,-943.359,456.543
1669195278.495,875.000,-180.664,-434.082,445.801
1669195278.497,-592.285,-1000.000,-1000.000,-291.504
1669195278.501,-1000.000,-841.309,-830.078,-564.453
1669195278.505,-684.570,517.578,519.043,-221.680
1669195278.509,800.293,-820.312,-853.027,388.184
1669195278.513,918.457,140.137,59.570,513.184
1669195278.517,-600.098,-1000.000,-1000.000,-193.359
1669195278.521,-1000.000,-889.648,-861.816,-570.801
1669195278.524,-811.523,486.816,512.695,-279.297
1669195278.528,658.203,-813.477,-828.125,317.383
1669195278.532,985.352,470.703,576.660,547.852
1669195278.536,-550.293,-912.598,-864.258,-102.539
1669195278.540,-1000.000,-1000.000,-1000.000,-555.664
1669195278.542,-855.469,373.047,419.922,-333.496
1669195278.546,564.941,-828.125,-826.660,232.910
1669195278.550,-924.805,674.316,626.953,567.383
1669195278.554,-408.203,-724.121,-767.090,-0.488
1669195278.558,-1000.000,-1000.000,-1000.000,-535.156
1669195278.562,-864.746,187.500,154.785,-392.578
1669195278.566,500.488,-878.418,-851.074,158.203
1669195278.569,-848.145,785.645,679.199,583.984
1669195278.573,-192.383,-583.496,-732.422,105.469
1669195278.577,-1000.000,-1000.000,-1000.000,-508.301
1669195278.581,-931.641,-176.270,-13.184,-443.848
1669195278.585,344.238,-954.590,-896.484,94.727
1669195278.587,-793.945,833.496,778.320,588.379
1669195278.591,164.551,-553.711,-608.398,193.848
1669195278.595,-1000.000,-1000.000,-1000.000,-473.633
1669195278.599,-1000.000,-548.828,-245.605,-479.980
1669195278.603,143.066,890.625,-987.793,13.184
1669195278.607,-805.664,907.227,873.535,566.895
1669195278.611,503.418,-558.594,-518.555,300.781
1669195278.614,-842.285,-1000.000,-1000.000,-404.297
1669195278.618,-1000.000,-707.520,-548.340,-504.395
1669195278.622,-125.000,741.699,828.125,-65.918
1669195278.626,-902.832,-979.004,971.680,520.508
1669195278.630,704.590,-435.547,-468.750,382.324
1669195278.632,-697.754,-1000.000,-1000.000,-355.469
1669195278.636,-1000.000,-806.641,-818.848,-538.086
1669195278.640,-441.406,586.914,608.398,-129.395
1669195278.644,949.219,-874.023,-949.707,489.258
1669195278.648,856.934,-218.750,-440.918,467.285
1669195278.652,-593.750,-1000.000,-1000.000,-285.156
1669195278.656,-1000.000,-838.867,-829.590,-552.734
1669195278.659,-665.527,517.090,527.344,-189.941
1669195278.663,815.430,-821.777,-857.910,413.574
1669195278.667,914.062,118.652,4.395,506.348
1669195278.671,-597.656,-1000.000,-1000.000,-194.824
1669195278.675,-1000.000,-881.836,-853.027,-537.109
1669195278.677,-798.828,493.652,510.742,-250.488
1669195278.681,677.246,-813.477,-828.125,333.984
1669195278.685,973.145,455.078,578.613,554.199
1669195278.689,-563.965,-925.293,-872.070,-95.215
1669195278.693,-1000.000,-1000.000,-991.699,-543.457
1669195278.697,-841.309,398.926,467.285,-315.918
1669195278.701,571.289,-830.078,-833.496,255.859
1669195278.704,975.586,555.176,528.320,539.551
1669195278.708,-434.082,-790.527,-810.547,-19.043
1669195278.712,-1000.000,-1000.000,-1000.000,-528.809
1669195278.716,-852.539,207.031,164.062,-387.695
1669195278.720,532.227,-859.863,-836.426,155.273
1669195278.723,-850.586,777.344,669.434,572.754
1669195278.727,-165.039,-584.473,-733.887,94.727
1669195278.731,-1000.000,-1000.000,-1000.000,-505.371
1669195278.735,-891.113,-128.906,0.000,-439.453
1669195278.739,428.223,-940.918,-892.090,87.891
1669195278.743,-802.734,829.102,772.949,575.195
1669195278.747,182.617,-552.246,-617.676,184.082
1669195278.750,-1000.000,-1000.000,-1000.000,-474.121
1669195278.754,-1000.000,-483.887,-200.684,-477.051
1669195278.758,271.484,925.293,-969.238,24.902
1669195278.762,-798.340,890.625,861.328,583.984
1669195278.766,511.719,-561.035,-524.414,308.594
1669195278.767,-843.750,-1000.000,-1000.000,-396.484
1669195278.771,-1000.000,-695.801,-492.676,-482.422
1669195278.775,34.668,757.812,869.629,-36.133
1669195278.779,-866.699,-992.188,958.496,559.570
1669195278.783,695.801,-454.590,-468.750,394.531
1669195278.787,-687.012,-1000.000,-1000.000,-352.539
1669195278.791,-1000.000,-804.199,-811.523,-524.902
1669195278.794,-310.547,595.215,615.723,-127.930
1669195278.798,-997.070,-882.812,-956.055,473.145
1669195278.802,835.449,-252.441,-449.707,440.918
1669195278.806,-585.938,-1000.000,-1000.000,-303.711
1669195278.810,-1000.000,-835.449,-831.055,-562.012
1669195278.827,-594.727,521.973,533.691,-187.012
1669195278.831,862.793,-825.195,-862.793,424.316
1669195278.835,899.902,73.730,-56.152,502.930
1669195278.839,-590.820,-1000.000,-1000.000,-210.449
1669195278.843,-1000.000,-872.559,-844.727,-543.457
1669195278.847,-775.391,497.070,507.812,-224.609
1669195278.851,705.078,-813.477,-827.637,370.117
1669195278.854,960.449,437.012,561.035,563.477
1669195278.858,-574.219,-938.965,-883.789,-102.051
1669195278.862,-1000.000,-987.793,-975.586,-553.223
1669195278.866,-839.355,412.109,475.586,-328.613
1669195278.870,591.797,-826.660,-833.008,243.164
1669195278.872,-942.383,644.043,629.395,532.715
1669195278.876,-431.152,-769.531,-777.832,-47.852
1669195278.880,-1000.000,-1000.000,-1000.000,-554.199
1669195278.884,-840.332,242.188,194.824,-381.836
1669195278.888,534.180,-856.934,-837.402,179.199
1669195278.892,-921.387,662.109,556.152,546.387
1669195278.896,-220.215,-638.184,-782.227,57.617
1669195278.899,-1000.000,-1000.000,-1000.000,-515.625
1669195278.903,-874.512,-105.469,11.230,-419.922
1669195278.907,461.426,-930.664,-884.766,105.957
1669195278.911,-808.105,826.660,772.461,587.891
1669195278.915,171.875,-552.246,-620.605,191.895
1669195278.917,-1000.000,-1000.000,-1000.000,-469.238
1669195278.921,-976.074,-427.734,-154.297,-460.449
1669195278.925,347.656,952.637,-955.566,40.527
1669195278.929,-802.734,876.953,856.445,575.195
1669195278.933,388.672,-561.523,-521.973,260.254
1669195278.937,-902.832,-1000.000,-1000.000,-404.785
1669195278.941,-1000.000,-660.645,-439.941,-470.215
1669195278.944,139.160,792.480,902.344,-36.621
1669195278.948,-842.285,987.305,947.754,558.105
1669195278.952,681.152,-475.098,-467.773,368.652
1669195278.956,-698.730,-1000.000,-1000.000,-378.906
1669195278.960,-1000.000,-792.969,-774.902,-529.785
1669195278.961,-183.594,610.840,645.020,-111.816
1669195278.965,-954.102,-890.625,-969.727,495.605
1669195278.969,813.965,-272.949,-458.496,442.383
1669195278.973,-584.473,-1000.000,-1000.000,-302.246
1669195278.977,-1000.000,-835.449,-833.984,-549.316
1669195278.981,-510.254,528.809,541.016,-175.781
1669195278.985,909.668,-831.055,-870.605,437.012
1669195278.988,884.277,6.348,-122.559,518.555
1669195278.992,-582.031,-1000.000,-1000.000,-207.520
1669195278.996,-1000.000,-852.539,-836.426,-561.523
1669195279.000,-723.145,511.719,504.395,-239.258
1669195279.004,758.301,-812.988,-828.613,367.188
1669195279.007,944.824,390.625,548.340,545.410
1669195279.011,-575.684,-966.309,-904.297,-119.629
1669195279.015,-1000.000,-967.773,-938.477,-539.551
1669195279.019,-821.777,429.688,538.574,-296.387
1669195279.023,615.234,-824.707,-836.914,276.855
1669195279.027,-952.148,630.859,626.465,557.617
1669195279.031,-441.406,-784.180,-780.273,-41.504
1669195279.034,-1000.000,-1000.000,-1000.000,-527.832
1669195279.038,-844.727,251.465,203.125,-353.516
1669195279.042,540.039,-851.562,-833.496,187.012
1669195279.046,-866.211,755.371,654.785,567.871
1669195279.050,-225.098,-621.094,-751.953,54.688
1669195279.067,-1000.000,-1000.000,-1000.000,-533.203
1669195279.071,-861.816,-19.531,46.387,-433.105
1669195279.075,478.516,-910.645,-878.418,100.586
1669195279.079,-813.965,813.965,758.789,570.312
1669195279.083,112.305,-550.781,-636.230,165.039
1669195279.087,-1000.000,-1000.000,-1000.000,-467.285
1669195279.091,-956.543,-416.016,-123.047,-447.266
1669195279.094,353.516,960.449,-942.871,45.410
1669195279.098,-798.828,867.676,842.773,580.566
1669195279.102,449.219,-571.777,-533.691,276.367
1669195279.106,-889.648,-1000.000,-1000.000,-407.715
1669195279.110,-1000.000,-652.344,-396.973,-473.633
1669195279.097,156.738,804.688,931.152,-20.020
1669195279.101,-835.938,973.633,939.941,551.270
1669195279.105,652.832,-496.582,-463.867,355.957
1669195279.109,-726.074,-1000.000,-1000.000,-360.840
1669195279.113,-1000.000,-783.691,-738.281,-500.000
1669195279.117,-160.156,631.348,677.246,-94.238
1669195279.121,-943.359,-907.715,-980.469,499.023
1669195279.124,798.828,-324.707,-461.914,423.340
1669195279.128,-597.656,-1000.000,-1000.000,-322.754
1669195279.132,-1000.000,-830.566,-834.473,-547.363
1669195279.136,-485.352,530.273,547.363,-177.734
1669195279.140,922.852,-834.961,-876.953,440.918
1669195279.142,879.883,-16.602,-169.922,507.324
1669195279.146,-579.590,-1000.000,-1000.000,-228.027
1669195279.150,-1000.000,-851.562,-830.566,-545.410
1669195279.154,-708.984,515.625,501.953,-224.609
1669195279.158,774.902,-813.965,-828.125,359.375
1669195279.162,933.594,330.566,534.180,521.973
1669195279.166,-587.402,-993.164,-910.645,-151.855
1669195279.169,-1000.000,-951.172,-936.035,-555.176
1669195279.173,-818.359,437.988,537.598,-284.180
1669195279.177,627.441,-821.289,-837.891,301.758
1669195279.181,-969.238,603.027,628.418,563.965
1669195279.185,-471.680,-812.500,-800.293,-39.062
1669195279.202,-1000.000,-1000.000,-1000.000,-531.250
1669195279.206,-847.168,291.504,303.711,-354.004
1669195279.210,547.852,-845.215,-826.660,211.426
1669195279.214,-878.418,740.723,642.578,573.242
1669195279.218,-288.574,-631.836,-752.441,31.738
1669195279.222,-1000.000,-1000.000,-1000.000,-500.000
1669195279.226,-852.539,-15.137,55.176,-394.043
1669195279.229,489.746,-908.691,-871.094,123.535
1669195279.233,-819.824,812.500,740.234,566.406
1669195279.237,51.270,-556.152,-656.738,114.746
1669195279.241,-1000.000,-1000.000,-1000.000,-508.789
1669195279.245,-943.359,-375.977,-116.699,-471.191
1669195279.247,378.906,976.562,-934.082,43.457
1669195279.251,-799.805,861.328,819.824,578.613
1669195279.255,316.895,-568.359,-565.430,217.285
1669195279.259,-947.754,-1000.000,-1000.000,-455.078
1669195279.263,-1000.000,-648.438,-369.141,-478.027
1669195279.267,211.914,811.523,950.195,18.066
1669195279.271,-816.406,964.355,928.223,572.266
1669195279.274,633.789,-509.277,-472.656,336.914
1669195279.278,-745.117,-1000.000,-1000.000,-378.906
1669195279.282,-1000.000,-777.344,-748.535,-513.672
1669195279.286,-65.918,644.531,668.457,-95.215
1669195279.290,-915.527,-918.945,-979.004,498.535
1669195279.292,783.691,-346.191,-464.844,408.203
1669195279.296,-601.074,-1000.000,-1000.000,-325.684
1669195279.300,-1000.000,-826.660,-844.238,-539.062
1669195279.304,-409.180,544.434,568.359,-165.039
1669195279.308,956.543,-844.238,-908.691,438.477
1669195279.312,867.188,-79.102,-336.914,447.266
1669195279.316,-572.754,-1000.000,-1000.000,-259.766
1669195279.319,-1000.000,-844.727,-817.871,-553.711
1669195279.323,-677.246,513.184,498.047,-211.426
1669195279.327,803.223,-813.477,-829.102,389.648
1669195279.331,923.340,306.152,414.551,516.113
1669195279.335,-589.844,-1000.000,-958.496,-169.434
1669195279.352,-1000.000,-940.918,-915.527,-570.312
1669195279.356,-807.129,448.730,532.227,-311.523
1669195279.360,647.949,-817.871,-835.449,280.273
1669195279.364,-985.840,567.383,621.094,550.293
1669195279.368,-498.535,-840.332,-804.199,-80.566
1669195279.372,-1000.000,-1000.000,-1000.000,-543.945
1669195279.376,-849.121,303.711,301.270,-320.801
1669195279.379,553.711,-839.844,-826.660,241.211
1669195279.383,-891.602,720.215,642.578,598.633
1669195279.387,-326.660,-660.156,-760.254,59.082
1669195279.391,-1000.000,-1000.000,-1000.000,-486.328
1669195279.395,-854.492,24.414,99.609,-360.840
1669195279.396,-1000.000,-1000.000,-1000.000,-452.148
1669195279.400,-931.641,-323.242,-94.238,-411.133
1669195279.404,366.211,996.094,-924.316,96.680
1669195279.408,-795.410,854.004,808.594,638.672
1669195279.411,340.332,-564.453,-581.055,296.387
1669195279.415,-947.266,-1000.000,-1000.000,-389.160
1669195279.419,-1000.000,-597.656,-319.824,-421.875
1669195279.423,199.707,852.051,975.586,51.270
1669195279.427,-818.359,940.430,907.227,624.512
1669195279.427,601.074,-526.367,-489.746,394.043
1669195279.431,-777.832,-1000.000,-1000.000,-329.102
1669195279.435,-1000.000,-754.395,-648.926,-456.543
1669195279.439,-69.336,668.457,748.535,-30.273
1669195279.443,-910.645,-924.316,999.023,576.172
1669195279.447,769.043,-344.727,-460.938,472.656
1669195279.451,-621.094,-1000.000,-1000.000,-262.695
1669195279.454,-1000.000,-823.242,-843.750,-459.961
1669195279.458,-386.719,553.223,571.289,-90.820
1669195279.462,967.773,-848.633,-911.621,511.230
1669195279.466,860.352,-103.516,-347.168,523.438
1669195279.470,-574.707,-1000.000,-1000.000,-211.426
1669195279.486,-1000.000,-843.750,-822.754,-504.883
1669195279.490,-649.414,513.672,503.906,-186.035
1669195279.494,826.172,-814.453,-833.984,411.133
1669195279.498,910.645,269.043,312.012,555.664
1669195279.502,-596.680,-1000.000,-996.094,-140.625
1669195279.506,-1000.000,-928.223,-898.438,-519.043
1669195279.510,-798.828,458.496,527.832,-236.328
1669195279.513,663.574,-817.383,-834.473,349.609
1669195279.517,999.023,554.199,613.281,596.191
1669195279.521,-520.508,-857.910,-820.801,-29.297
1669195279.525,-1000.000,-1000.000,-1000.000,-499.023
1669195279.529,-846.680,340.820,348.633,-294.434
1669195279.516,562.012,-835.938,-827.637,264.160
1669195279.520,-903.809,699.707,638.672,601.074
1669195279.524,-352.051,-694.824,-761.230,53.223
1669195279.528,-1000.000,-1000.000,-1000.000,-509.277
1669195279.532,-852.051,106.934,106.445,-396.973
1669195279.536,506.836,-881.836,-850.586,153.320
1669195279.540,-835.938,793.945,700.684,599.121
1669195279.543,-85.938,-561.523,-701.660,153.320
1669195279.547,-1000.000,-1000.000,-1000.000,-467.285
1669195279.551,-921.875,-295.410,-40.527,-419.922
1669195279.555,377.441,-993.652,-906.250,104.004
1669195279.559,-796.387,851.074,794.434,600.586
1669195279.577,284.180,-562.500,-591.797,243.164
1669195279.581,-969.727,-1000.000,-1000.000,-422.852
1669195279.585,-1000.000,-556.641,-270.996,-454.590
1669195279.589,206.543,882.324,995.605,23.438
1669195279.593,-811.523,918.945,898.926,588.379
1669195279.597,562.988,-545.410,-486.328,351.074
1669195279.601,-804.688,-1000.000,-1000.000,-372.070
1669195279.604,-1000.000,-730.957,-616.699,-504.395
1669195279.608,-54.688,704.102,775.391,-87.891
1669195279.612,-899.414,-945.801,989.746,530.762
1669195279.616,742.676,-381.836,-464.355,409.180
1669195279.620,-648.926,-1000.000,-1000.000,-336.914
1669195279.622,-1000.000,-822.266,-843.750,-517.090
1669195279.626,-364.258,559.082,582.520,-148.438
1669195279.630,978.027,-856.445,-927.246,454.590
1669195279.634,862.793,-155.273,-400.879,471.191
1669195279.638,-587.402,-1000.000,-1000.000,-257.324
1669195279.642,-1000.000,-841.309,-823.730,-516.602
1669195279.646,-428.223,515.137,508.789,-125.488
1669195279.649,920.410,-816.406,-841.797,423.828
1669195279.653,872.070,190.918,212.402,516.602
1669195279.657,-577.637,-1000.000,-1000.000,-149.414
1669195279.661,-1000.000,-895.996,-883.301,-530.273
1669195279.665,-777.832,487.793,523.926,-247.559
1669195279.667,687.988,-816.406,-833.496,349.609
1669195279.671,990.234,517.090,601.562,577.637
1669195279.675,-525.879,-885.742,-848.633,-64.453
1669195279.679,-1000.000,-1000.000,-1000.000,-536.133
1669195279.683,-838.379,363.770,430.664,-308.105
1669195279.687,575.684,-834.473,-831.055,255.371
1669195279.691,-910.645,691.406,634.277,584.473
1669195279.694,-361.816,-711.914,-763.184,39.551
1669195279.698,-1000.000,-1000.000,-1000.000,-498.535
1669195279.702,-843.750,159.180,128.906,-363.281
1669195279.706,524.902,-871.094,-846.191,184.570
1669195279.710,-843.262,789.062,694.824,613.770
1669195279.712,-114.258,-570.801,-708.008,151.367
1669195279.716,-1000.000,-1000.000,-1000.000,-463.379
1669195279.720,-899.902,-195.801,-19.043,-420.898
1669195279.724,417.969,-959.961,-899.902,76.172
1669195279.728,-800.781,835.449,787.109,570.801
1669195279.732,237.793,-555.176,-600.098,211.914
1669195279.736,-990.723,-1000.000,-1000.000,-450.195
1669195279.739,-1000.000,-562.500,-241.211,-466.309
1669195279.743,239.258,880.859,-989.258,21.484
1669195279.747,-803.223,917.480,883.301,575.195
1669195279.751,525.879,-548.828,-501.465,312.500
1669195279.755,-824.219,-1000.000,-1000.000,-406.250
1669195279.757,-1000.000,-721.191,-570.801,-509.277
1669195279.761,-65.918,724.121,812.012,-70.801
1669195279.765,-890.625,-966.797,979.980,518.555
1669195279.769,704.590,-419.922,-462.891,380.371
1669195279.773,-688.477,-1000.000,-1000.000,-353.027
1669195279.777,-1000.000,-811.523,-823.730,-542.480
1669195279.781,-408.691,572.754,600.098,-146.484
1669195279.784,962.891,-861.816,-940.430,474.121
1669195279.788,854.004,-174.316,-421.875,473.145
1669195279.792,-588.867,-1000.000,-1000.000,-246.094
1669195279.796,-1000.000,-838.867,-821.289,-514.648
1669195279.800,-623.047,513.672,517.090,-161.621
1669195279.801,845.215,-815.918,-846.191,437.012
1669195279.805,905.273,193.359,160.645,538.574
1669195279.809,-592.773,-1000.000,-1000.000,-166.504
1669195279.813,-1000.000,-891.602,-875.000,-541.504
1669195279.817,-769.043,498.047,523.438,-248.535
1669195279.821,704.590,-816.895,-833.008,337.891
1669195279.825,973.633,485.840,593.262,564.941
1669195279.828,-549.805,-912.109,-859.863,-68.848
1669195279.832,-1000.000,-1000.000,-991.699,-524.902
1669195279.836,-830.078,405.762,458.496,-299.805
1669195279.840,588.379,-836.426,-833.008,276.367
1669195279.844,-917.969,689.453,635.742,603.027
1669195279.847,-374.023,-721.191,-768.555,34.180
1669195279.851,-1000.000,-1000.000,-1000.000,-493.652
1669195279.855,-841.309,210.938,166.016,-337.891
1669195279.859,529.297,-865.234,-841.797,208.984
1669195279.863,-846.191,786.133,677.734,612.305
1669195279.867,-123.535,-569.824,-722.168,132.812
1669195279.871,-1000.000,-1000.000,-1000.000,-472.656
1669195279.874,-881.348,-164.551,-20.996,-422.363
1669195279.878,453.125,-951.172,-898.926,102.539
1669195279.882,-804.199,833.984,783.203,585.938
1669195279.886,210.449,-555.176,-607.910,196.777
1669195279.890,-1000.000,-1000.000,-1000.000,-459.961
1669195279.892,-1000.000,-482.910,-214.355,-468.262
1669195279.896,255.859,924.805,-974.121,24.414
1669195279.900,-797.852,893.555,866.699,565.918
1669195279.904,477.051,-556.152,-520.508,286.133
1669195279.908,-855.469,-1000.000,-1000.000,-412.598
1669195279.912,-1000.000,-710.938,-515.625,-501.465
1669195279.916,-36.621,737.305,852.539,-56.152
1669195279.919,-876.465,-976.562,964.844,541.016
1669195279.923,681.152,-431.641,-467.285,376.953
1669195279.927,-708.984,-1000.000,-1000.000,-361.816
1669195279.931,-1000.000,-802.734,-820.801,-541.992
1669195279.935,-364.258,596.680,607.910,-138.184
1669195279.951,984.863,-881.348,-951.660,474.609
1669195279.955,835.449,-243.652,-444.824,446.777
1669195279.959,-599.609,-1000.000,-1000.000,-276.367
1669195279.963,-1000.000,-836.914,-834.473,-534.668
1669195279.967,-614.746,520.996,532.227,-195.801
1669195279.971,850.098,-825.195,-862.793,416.504
1669195279.975,903.809,79.102,-70.312,507.812
1669195279.978,-592.773,-1000.000,-1000.000,-212.891
1669195279.982,-1000.000,-872.070,-841.797,-560.547
1669195279.986,-778.320,496.582,505.859,-245.605
1669195279.990,702.148,-814.941,-827.637,343.262
1669195279.994,959.473,465.332,577.148,541.016
1669195279.996,-575.684,-929.688,-878.418,-116.699
1669195280.000,-1000.000,-981.445,-974.121,-554.199
1669195280.004,-831.055,436.523,484.863,-307.617
1669195280.008,592.773,-833.984,-833.984,267.578
1669195280.012,-929.688,666.016,631.836,572.754
1669195280.016,-399.902,-758.301,-776.367,4.395
1669195280.020,-1000.000,-1000.000,-1000.000,-516.602
1669195280.023,-833.496,290.527,194.336,-366.699
1669195280.027,530.762,-855.957,-838.867,196.289
1669195280.031,-844.238,778.320,672.363,608.887
1669195280.035,-86.426,-586.914,-738.281,122.070
1669195280.039,-1000.000,-1000.000,-1000.000,-458.984
1669195280.041,-846.191,-28.320,62.988,-353.516
1669195280.045,506.836,-914.551,-879.883,184.570
1669195280.049,-813.965,817.383,771.484,644.531
1669195280.053,315.918,-547.363,-610.840,247.070
1669195280.057,-1000.000,-1000.000,-1000.000,-400.391
1669195280.061,-939.453,-431.152,-164.062,-414.062
1669195280.065,452.637,950.195,-958.008,66.406
1669195280.068,-820.801,880.371,858.398,606.934
1669195280.072,574.707,-559.082,-523.926,312.500
1669195280.076,-839.355,-1000.000,-1000.000,-400.879
1669195280.080,-1000.000,-623.047,-396.484,-485.840
1669195280.084,319.336,810.547,929.688,-34.668
1669195280.086,-841.797,998.047,942.383,548.340
1669195280.090,716.797,-437.988,-458.984,377.930
1669195280.094,-659.668,-1000.000,-1000.000,-357.910
1669195280.098,-1000.000,-783.691,-778.320,-518.066
1669195280.102,-5.859,616.699,636.719,-109.375
1669195280.106,-909.180,919.434,837.402,485.352
1669195280.110,803.711,-356.445,-535.156,454.102
1669195280.113,-563.477,-1000.000,-1000.000,-274.414
1669195280.117,-1000.000,-850.098,-852.051,-543.457
1669195280.121,-411.621,532.715,544.434,-191.406
1669195280.125,955.566,-831.055,-870.605,404.785
1669195280.129,867.676,4.883,-131.348,465.332
1669195280.131,-573.242,-1000.000,-1000.000,-242.676
1669195280.135,-1000.000,-850.098,-834.961,-569.336
1669195280.139,-676.270,513.184,503.418,-252.930
1669195280.143,795.898,-813.477,-826.172,352.051
1669195280.147,939.941,410.645,546.387,527.344
1669195280.151,-564.453,-953.125,-895.508,-156.738
1669195280.155,-1000.000,-979.492,-963.379,-562.012
1669195280.158,-807.129,416.992,492.188,-312.988
1669195280.162,627.441,-824.707,-833.008,264.648
1669195280.166,-946.777,633.301,624.512,567.871
1669195280.170,-423.828,-788.574,-784.668,-28.809
1669195280.174,-1000.000,-1000.000,-1000.000,-533.691
1669195280.176,-841.797,282.715,205.566,-373.047
1669195280.180,542.480,-846.680,-832.520,171.387
1669195280.184,-864.258,746.094,652.832,555.664
1669195280.188,-213.379,-624.512,-751.465,44.434
1669195280.192,-1000.000,-1000.000,-1000.000,-537.598
1669195280.196,-856.934,-28.809,34.180,-441.895
1669195280.200,487.793,-913.086,-878.418,83.984
1669195280.203,-814.941,813.965,748.047,543.945
1669195280.207,120.605,-550.781,-647.949,130.859
1669195280.211,-1000.000,-1000.000,-1000.000,-498.535
1669195280.215,-954.590,-434.082,-144.531,-468.750
1669195280.219,361.328,952.637,-948.242,36.133
1669195280.221,-799.316,871.094,840.820,562.012
1669195280.225,450.684,-573.242,-541.992,247.070
1669195280.229,-887.695,-1000.000,-1000.000,-446.777
1669195280.233,-1000.000,-641.602,-411.133,-525.879
1669195280.237,151.855,814.453,923.828,-61.035
1669195280.241,-835.449,965.820,938.477,531.250
1669195280.245,645.020,-504.395,-471.680,327.148
1669195280.248,-727.539,-1000.000,-1000.000,-409.668
1669195280.252,-1000.000,-775.879,-758.301,-543.945
1669195280.256,-207.520,641.602,660.645,-122.559
1669195280.260,-955.078,-911.621,-977.539,487.305
1669195280.264,796.387,-327.637,-465.820,419.434
1669195280.267,-607.910,-1000.000,-1000.000,-332.520
1669195280.271,-1000.000,-836.914,-845.215,-569.336
1669195280.275,-538.574,536.133,559.570,-181.152
1669195280.279,889.648,-839.844,-897.461,417.480
1669195280.283,790.527,-112.305,-311.523,411.133
1669195280.287,-619.629,-1000.000,-1000.000,-293.945
1669195280.291,-1000.000,-837.891,-815.430,-593.262
1669195280.294,-760.254,509.766,494.141,-280.273
1669195280.298,740.234,-812.012,-825.684,314.453
1669195280.302,935.059,312.500,488.281,488.770
1669195280.306,-603.027,-1000.000,-927.246,-181.641
1669195280.310,-1000.000,-945.801,-937.500,-595.215
1669195280.327,-843.750,440.918,519.043,-329.102
1669195280.331,607.910,-807.129,-821.777,272.461
1669195280.335,-976.562,581.055,612.305,558.594
1669195280.339,-514.160,-828.125,-807.617,-64.941
1669195280.343,-1000.000,-793.457,-795.410,-531.738
1669195280.347,-751.953,417.969,405.273,-334.473
1669195280.351,583.496,-896.484,-877.441,189.941
1669195280.354,-906.250,763.184,667.969,561.523
1669195280.358,-321.289,-645.508,-760.254,33.691
1669195280.362,-1000.000,-1000.000,-1000.000,-530.762
1669195280.366,-874.023,10.254,56.152,-422.852
1669195280.370,459.961,-901.367,-865.723,113.281
1669195280.372,-822.266,809.082,737.793,593.750
1669195280.376,-30.273,-560.547,-664.062,169.434
1669195280.380,-1000.000,-1000.000,-1000.000,-477.539
1669195280.384,-949.707,-316.406,-28.809,-458.008
1669195280.388,322.266,979.980,-957.031,80.566
1669195280.392,-792.969,859.863,836.914,590.820
1669195280.396,385.254,-566.895,-560.547,232.910
1669195280.399,-927.734,-1000.000,-1000.000,-448.730
1669195280.403,-1000.000,-630.371,-334.961,-489.258
1669195280.407,185.547,820.312,962.402,-31.738
1669195280.411,-829.590,969.238,926.270,553.711
1669195280.415,646.973,-491.211,-463.379,352.539
1669195280.417,-752.930,-1000.000,-1000.000,-368.164
1669195280.421,-1000.000,-739.746,-673.340,-494.629
1669195280.425,23.926,682.129,729.980,-67.871
1669195280.429,-897.949,-919.922,-994.141,544.434
1669195280.433,791.016,-325.684,-458.496,460.938
1669195280.437,-589.844,-1000.000,-1000.000,-303.223
1669195280.441,-1000.000,-822.754,-841.797,-519.531
1669195280.444,-257.812,545.898,567.871,-118.164
1669195280.448,-986.328,-840.820,-905.762,503.906
1669195280.452,847.168,-48.340,-317.871,549.805
1669195280.456,-562.012,-1000.000,-1000.000,-188.477
1669195280.460,-1000.000,-847.656,-816.895,-534.180
1669195280.462,-535.156,513.672,495.117,-224.121
1669195280.466,889.160,-813.965,-826.172,388.184
1669195280.470,907.227,331.543,479.980,551.758
1669195280.474,-558.105,-997.070,-935.547,-154.785
1669195280.478,-1000.000,-939.941,-924.805,-586.914
1669195280.482,-757.324,459.473,539.062,-337.402
1669195280.486,693.848,-818.848,-837.891,246.094
1669195280.489,-982.910,556.152,621.094,496.582
1669195280.493,-468.262,-860.840,-816.406,-142.090
1669195280.497,-1000.000,-1000.000,-1000.000,-652.344
1669195280.501,-835.938,359.863,351.562,-465.820
1669195280.505,561.523,-843.262,-828.613,108.887
1669195280.507,-882.812,726.562,640.137,472.656
1669195280.511,-278.809,-653.320,-755.859,-62.012
1669195280.515,-1000.000,-1000.000,-1000.000,-638.672
1669195280.519,-843.262,54.199,84.473,-529.785
1669195280.523,513.672,-892.578,-859.863,17.578
1669195280.527,-826.660,803.711,718.262,467.773
1669195280.531,15.625,-559.570,-678.223,15.625
1669195280.534,-1000.000,-1000.000,-1000.000,-615.723
1669195280.538,-912.598,-310.547,-96.680,-583.496
1669195280.542,411.621,-999.023,-926.270,-67.383
1669195280.546,-801.758,853.516,813.965,478.516
1669195280.550,395.996,-563.965,-579.102,126.953
1669195280.552,-937.988,-1000.000,-1000.000,-564.941
1669195280.556,-1000.000,-549.316,-279.785,-584.961
1669195280.560,300.781,876.953,987.793,-101.562
1669195280.564,-822.266,938.965,910.156,477.539
1669195280.568,644.531,-508.789,-471.191,255.859
1669195280.572,-761.230,-1000.000,-1000.000,-465.820
1669195280.576,-1000.000,-733.887,-622.070,-566.895
1669195280.579,147.949,688.477,770.020,-115.723
1669195280.583,-877.441,-923.340,995.605,499.023
1669195280.587,794.922,-328.125,-455.566,406.738
1669195280.591,-603.027,-1000.000,-1000.000,-326.172
1669195280.595,-1000.000,-798.828,-832.520,-532.227
1669195280.597,30.762,568.848,566.895,-127.930
1669195280.601,-906.738,-841.797,-895.020,514.648
1669195280.605,829.590,-17.578,-257.324,541.992
1669195280.609,-569.336,-1000.000,-1000.000,-203.125
1669195280.613,-1000.000,-847.168,-819.824,-498.047
1669195280.617,-58.594,518.066,505.859,-137.695
1669195280.621,-954.590,-815.918,-829.590,496.094
1669195280.624,899.902,354.492,460.938,636.719
1669195280.628,-430.664,-999.023,-942.383,-74.219
1669195280.632,-1000.000,-917.480,-919.922,-473.633
1669195280.636,-320.312,504.395,541.504,-202.637
1669195280.640,928.223,-827.637,-839.355,377.441
1669195280.642,-986.816,585.938,625.000,625.977
1669195280.646,-248.047,-845.215,-827.148,-10.254
1669195280.650,-1000.000,-1000.000,-1000.000,-487.793
1669195280.654,-595.215,393.066,417.969,-259.277
1669195280.658,764.160,-839.844,-832.520,308.105
1669195280.662,-928.223,597.656,536.621,606.934
1669195280.666,-50.781,-736.816,-792.480,62.500
1669195280.669,-1000.000,-1000.000,-1000.000,-493.652
1669195280.673,-816.895,145.508,99.121,-384.277
1669195280.677,569.824,-869.629,-845.215,172.852
1669195280.681,-829.102,789.062,690.430,603.516
1669195280.685,208.984,-563.965,-709.961,129.395
1669195280.702,-1000.000,-1000.000,-1000.000,-488.281
1669195280.706,-881.348,-249.023,-61.035,-442.871
1669195280.710,521.484,-977.051,-910.156,87.891
1669195280.714,-819.336,843.750,789.551,626.953
1669195280.718,458.008,-559.082,-599.609,250.977
1669195280.722,-927.246,-1000.000,-1000.000,-445.801
1669195280.726,-993.164,-558.105,-299.316,-482.422
1669195280.729,407.227,884.766,989.258,-8.789
1669195280.733,-825.195,912.598,888.672,563.477
1669195280.737,629.883,-554.688,-511.719,306.152
1669195280.741,-766.602,-1000.000,-1000.000,-420.898
1669195280.745,-1000.000,-727.051,-646.484,-531.250
1669195280.747,136.719,718.262,753.418,-96.191
1669195280.751,-866.699,-964.844,991.211,500.000
1669195280.755,741.211,-420.410,-474.121,359.375
1669195280.759,-624.023,-1000.000,-1000.000,-395.996
1669195280.763,-1000.000,-824.707,-851.562,-581.543
1669195280.767,-267.090,558.594,584.473,-177.734
1669195280.771,-987.793,-861.328,-942.383,428.223
1669195280.774,839.355,-186.523,-441.895,432.129
1669195280.778,-569.824,-1000.000,-1000.000,-295.898
1669195280.782,-1000.000,-841.309,-828.613,-574.219
1669195280.786,-598.145,517.578,516.602,-223.633
1669195280.790,859.863,-820.801,-850.586,393.555
1669195280.792,900.391,131.836,79.102,526.855
1669195280.796,-592.285,-1000.000,-1000.000,-198.242
1669195280.800,-1000.000,-886.230,-863.770,-594.727
1669195280.804,-789.551,488.281,514.160,-301.270
1669195280.808,683.105,-812.988,-826.660,313.477
1669195280.812,977.051,476.074,575.684,547.363
1669195280.816,-554.199,-904.297,-853.516,-102.051
1669195280.819,-1000.000,-1000.000,-1000.000,-566.895
1669195280.823,-851.074,347.656,368.652,-331.055
1669195280.827,571.777,-830.078,-827.148,239.258
1669195280.831,-927.246,679.199,630.859,544.922
1669195280.835,-409.668,-726.562,-768.066,-42.480
1669195280.837,-1000.000,-1000.000,-1000.000,-588.867
1669195280.841,-859.375,167.969,114.746,-435.547
1669195280.845,515.137,-866.211,-842.285,133.789
1669195280.849,-855.469,773.926,672.852,544.922
1669195280.853,-216.797,-583.984,-728.027,59.082
1669195280.857,-1000.000,-1000.000,-1000.000,-552.246
1669195280.861,-939.941,-215.820,-57.617,-513.672
1669195280.864,336.914,-965.820,-905.273,-11.719
1669195280.868,-798.828,836.914,775.391,473.145
1669195280.872,71.777,-555.664,-613.770,102.539
1669195280.876,-1000.000,-1000.000,-1000.000,-585.449
1669195280.880,-1000.000,-597.168,-315.430,-655.762
1669195280.882,21.973,866.699,988.770,-198.730
1669195280.886,-818.848,911.133,874.023,373.047
1669195280.890,373.535,-571.289,-538.086,91.309
1669195280.894,-892.578,-1000.000,-1000.000,-674.805
1669195280.898,-1000.000,-736.328,-665.039,-787.109
1669195280.902,-434.570,723.633,742.188,-333.496
1669195280.906,-981.445,-990.723,991.211,280.273
1669195280.909,635.254,-473.145,-481.934,132.812
1669195280.913,-807.617,-1000.000,-1000.000,-660.156
1669195280.917,-1000.000,-819.336,-851.562,-867.676
1669195280.921,-706.055,571.777,587.891,-446.777
1669195280.925,817.383,-864.746,-939.941,158.691
1669195280.927,843.262,-243.164,-465.820,118.164
1669195280.931,-689.453,-1000.000,-1000.000,-623.047
1669195280.935,-1000.000,-639.648,-632.812,-858.887
1669195280.939,-797.852,588.867,592.773,-522.461
1669195280.943,694.336,-852.539,-884.766,94.727
1669195280.947,941.895,169.922,84.473,224.121
1669195280.951,-606.934,-1000.000,-1000.000,-473.145
1669195280.954,-1000.000,-875.977,-861.328,-823.242
1669195280.958,-820.312,509.766,515.625,-524.414
1669195280.962,656.738,-818.848,-829.590,104.980
1669195280.966,967.773,495.117,587.891,339.355
1669195280.970,-579.590,-915.527,-872.559,-316.895
1669195280.972,-1000.000,-985.840,-976.074,-759.277
1669195280.976,-828.613,442.383,484.375,-501.465
1669195280.980,585.938,-844.238,-834.961,129.395
1669195280.984,-914.551,709.473,636.230,476.074
1669195280.988,-362.793,-705.566,-770.508,-89.355
1669195280.992,-1000.000,-1000.000,-1000.000,-599.609
1669195280.996,-827.148,250.488,186.035,-415.039
1669195280.999,533.203,-863.281,-841.797,185.547
1669195281.003,-837.891,792.480,683.594,622.070
1669195281.007,-29.297,-575.195,-719.238,146.484
1669195281.011,-1000.000,-1000.000,-1000.000,-420.898
1669195281.015,-848.633,-34.668,14.648,-334.473
1669195281.017,513.184,-915.527,-891.113,196.289
1669195281.021,-814.941,815.918,780.273,713.379
1669195281.025,361.816,-545.410,-603.516,334.961
1669195281.029,-984.863,-1000.000,-1000.000,-314.941
1669195281.033,-943.359,-483.887,-217.285,-323.730
1669195281.037,461.914,925.781,-973.145,180.664
1669195281.041,-820.801,891.113,859.863,767.090
1669195281.044,575.195,-561.035,-529.297,463.867
1669195281.048,-815.430,-1000.000,-1000.000,-273.438
1669195281.052,-1000.000,-725.586,-607.910,-356.934
1669195281.056,197.266,735.840,785.156,101.074
1669195281.060,-837.891,-996.094,978.027,690.918
1669195281.077,660.156,-477.051,-481.445,513.184
1669195281.081,-695.312,-1000.000,-1000.000,-237.305
1669195281.085,-1000.000,-816.895,-847.656,-409.180
1669195281.089,-316.406,584.961,590.820,16.113
1669195281.093,-994.629,-887.207,-952.148,648.926
1669195281.097,816.406,-283.203,-458.496,608.398
1669195281.101,-608.887,-1000.000,-1000.000,-151.367
1669195281.104,-1000.000,-836.914,-839.844,-417.480
1669195281.108,-634.766,519.043,533.691,-64.453
1669195281.112,836.426,-826.660,-869.141,549.316
1669195281.116,907.715,44.434,-127.930,617.188
1669195281.120,-595.215,-1000.000,-1000.000,-119.629
1669195281.122,-1000.000,-866.211,-834.961,-464.844
1669195281.126,-795.410,498.535,502.930,-155.762
1669195281.130,688.965,-812.988,-825.684,462.402
1669195281.134,951.660,427.734,553.711,677.246
1669195281.138,-595.703,-944.336,-885.254,-1.953
1669195281.142,-1000.000,-984.375,-980.469,-446.289
1669195281.146,-843.750,415.039,464.355,-197.266
1669195281.149,595.215,-830.566,-833.008,398.926
1669195281.153,-958.496,661.133,634.766,721.680
1669195281.157,-462.402,-770.508,-784.668,138.672
1669195281.161,-1000.000,-1000.000,-1000.000,-395.996
1669195281.165,-833.008,317.871,243.652,-219.238
1669195281.182,528.320,-862.793,-841.797,374.023
1669195281.186,-845.703,804.199,699.219,779.785
1669195281.190,-90.332,-588.379,-713.867,281.738
1669195281.194,-1000.000,-1000.000,-1000.000,-296.875
1669195281.198,-827.148,173.340,136.230,-164.062
1669195281.202,514.160,-874.512,-870.117,388.184
1669195281.206,-821.777,807.617,787.598,856.445
1669195281.209,510.742,-551.758,-601.074,448.242
1669195281.213,-935.547,-1000.000,-1000.000,-204.102
1669195281.217,-914.551,-148.926,0.000,-193.359
1669195281.221,564.453,-955.078,-918.945,301.270
1669195281.225,-868.164,852.051,854.980,842.285
1669195281.257,744.141,-514.160,-491.211,534.180
1669195281.261,-745.605,-1000.000,-1000.000,-193.848
1669195281.265,-994.141,-593.262,-312.988,-281.250
1669195281.269,573.242,833.008,969.238,173.340
1669195281.273,-875.488,987.793,930.176,754.883
1669195281.277,520.996,-440.918,-449.707,437.012
1669195281.281,-762.207,-1000.000,-1000.000,-248.535
1669195281.284,-1000.000,-761.230,-689.453,-320.312
1669195281.288,436.035,648.926,713.379,56.641
1669195281.292,-862.793,-897.949,-982.910,653.809
1669195281.296,800.781,-272.949,-445.312,567.871
1669195281.300,-554.199,-1000.000,-1000.000,-197.754
1669195281.302,-1000.000,-842.773,-840.820,-467.773
1669195281.306,23.926,531.250,545.898,-116.211
1669195281.310,-906.250,-839.844,-878.418,496.582
1669195281.314,806.641,-65.430,-205.078,543.457
1669195281.318,-541.504,-1000.000,-1000.000,-222.168
1669195281.322,-1000.000,-854.980,-828.613,-541.504
1669195281.326,-566.895,498.535,500.977,-222.656
1669195281.329,869.629,-810.059,-825.195,360.352
1669195281.333,914.551,322.266,471.191,537.598
1669195281.337,-562.012,-986.328,-922.852,-148.438
1669195281.341,-1000.000,-974.121,-963.379,-575.684
1669195281.345,-808.105,394.043,463.379,-337.891
1669195281.332,643.066,-815.918,-829.102,255.859
1669195281.336,-978.027,595.215,620.605,543.945
1669195281.340,-483.887,-814.941,-788.574,-74.219
1669195281.344,-1000.000,-1000.000,-1000.000,-576.172
1669195281.348,-853.516,265.625,204.590,-397.461
1669195281.352,553.711,-840.332,-830.078,171.875
1669195281.356,-897.949,721.680,648.438,570.801
1669195281.359,-351.562,-652.344,-753.418,47.852
1669195281.363,-1000.000,-1000.000,-1000.000,-533.203
1669195281.367,-895.996,-41.016,24.902,-423.828
1669195281.371,433.105,-914.062,-876.953,120.605
1669195281.375,-826.660,811.035,739.258,584.961
1669195281.363,-113.281,-552.734,-656.250,159.180
1669195281.367,-1000.000,-1000.000,-1000.000,-485.352
1669195281.371,-998.535,-472.656,-173.340,-468.750
1669195281.375,189.941,937.988,-952.148,28.320
1669195281.379,-794.434,876.465,830.566,563.477
1669195281.383,197.754,-576.172,-559.082,228.516
1669195281.387,-963.867,-1000.000,-1000.000,-485.840
1669195281.390,-1000.000,-688.477,-504.395,-545.898
1669195281.394,-184.082,788.086,869.629,-75.195
1669195281.398,-877.441,959.961,949.219,519.043
1669195281.402,508.789,-535.156,-489.746,309.570
1669195281.406,-845.703,-1000.000,-1000.000,-443.359
1669195281.392,-1000.000,-801.270,-793.945,-589.844
1669195281.396,-577.637,624.512,634.277,-158.203
1669195281.400,929.199,-926.270,-973.145,465.820
1669195281.404,738.281,-377.930,-474.121,372.559
1669195281.408,-760.254,-1000.000,-1000.000,-396.973
1669195281.412,-1000.000,-842.285,-854.492,-617.188
1669195281.416,-792.969,531.738,566.895,-232.910
1669195281.419,718.750,-848.633,-920.410,382.324
1669195281.423,895.508,-135.742,-391.113,430.176
1669195281.427,-664.062,-1000.000,-1000.000,-320.312
1669195281.431,-1000.000,-852.539,-823.242,-647.461
1669195281.435,-869.141,503.906,506.836,-327.637
1669195281.452,609.863,-812.988,-835.449,276.367
1669195281.456,964.355,179.688,221.680,451.660
1669195281.460,-623.047,-1000.000,-1000.000,-252.930
1669195281.464,-1000.000,-942.871,-929.199,-666.016
1669195281.468,-792.969,402.832,439.941,-368.164
1669195281.472,606.934,-805.664,-819.336,191.895
1669195281.476,951.172,521.973,584.961,440.918
1669195281.479,-619.141,-862.793,-816.406,-169.922
1669195281.483,-1000.000,-1000.000,-1000.000,-658.203
1669195281.487,-951.172,257.812,203.613,-455.078
1669195281.491,429.688,-833.984,-828.613,117.676
1669195281.495,-962.891,704.590,639.648,501.465
1669195281.497,-544.922,-675.781,-763.184,-32.715
1669195281.501,-1000.000,-1000.000,-1000.000,-608.398
1669195281.505,-1000.000,-14.648,35.156,-486.816
1669195281.509,215.820,-906.738,-868.652,77.148
1669195281.513,-870.117,808.105,718.262,536.133
1669195281.517,-350.098,-563.965,-683.594,83.008
1669195281.521,-1000.000,-1000.000,-1000.000,-534.180
1669195281.524,-1000.000,-350.586,-132.324,-492.676
1669195281.528,-21.973,986.328,-933.105,21.484
1669195281.532,-837.402,857.910,807.129,560.059
1669195281.536,28.809,-566.406,-590.820,224.121
1669195281.540,-1000.000,-1000.000,-1000.000,-476.074
1669195281.542,-1000.000,-628.906,-342.773,-520.020
1669195281.546,-242.676,825.684,960.449,-25.879
1669195281.550,-886.719,964.355,929.199,565.430
1669195281.554,488.281,-512.207,-476.562,353.027
1669195281.558,-877.441,-1000.000,-1000.000,-351.074
1669195281.562,-1000.000,-624.512,-526.855,-440.918
1669195281.566,-335.449,735.840,801.758,-4.395
1669195281.569,-975.098,-945.801,979.492,603.027
1669195281.573,754.395,-330.078,-448.730,497.559
1669195281.577,-691.406,-1000.000,-1000.000,-282.715
1669195281.581,-1000.000,-806.641,-838.379,-503.906
1669195281.585,-457.031,561.035,569.824,-91.309
1669195281.587,937.500,-842.285,-903.320,548.340
1669195281.591,871.582,-34.668,-302.246,591.309
1669195281.595,-582.520,-1000.000,-1000.000,-164.062
1669195281.599,-1000.000,-852.539,-828.125,-465.332
1669195281.603,-600.098,519.043,507.812,-125.977
1669195281.607,857.422,-815.918,-835.938,473.145
1669195281.611,901.855,263.184,301.758,616.699
1669195281.614,-590.820,-1000.000,-999.023,-92.773
1669195281.618,-1000.000,-930.176,-897.949,-527.832
1669195281.622,-783.203,456.543,525.391,-240.234
1669195281.626,683.594,-811.523,-828.613,359.863
1669195281.630,987.305,496.582,583.984,583.008
1669195281.632,-534.668,-887.207,-830.078,-81.055
1669195281.636,-1000.000,-1000.000,-1000.000,-574.219
1669195281.640,-852.539,313.965,287.109,-359.375
1669195281.644,565.918,-833.496,-824.219,235.352
1669195281.648,-920.410,698.242,636.719,610.352
1669195281.652,-393.555,-683.105,-761.719,40.527
1669195281.656,-1000.000,-1000.000,-1000.000,-515.137
1669195281.659,-859.863,20.996,75.195,-363.281
1669195281.663,504.883,-897.949,-854.492,187.012
1669195281.667,-845.703,802.246,696.777,637.207
1669195281.671,-164.062,-565.918,-699.707,177.734
1669195281.675,-1000.000,-1000.000,-1000.000,-460.449
1669195281.677,-928.223,-324.219,-110.352,-423.340
1669195281.681,354.980,996.582,-929.199,108.887
1669195281.685,-795.898,854.980,802.246,640.137
1669195281.689,193.848,-564.453,-599.121,299.805
1669195281.693,-999.023,-1000.000,-1000.000,-394.531
1669195281.697,-1000.000,-567.383,-300.781,-448.730
1669195281.701,171.875,871.094,983.887,61.523
1669195281.704,-811.035,934.082,904.785,653.809
1669195281.708,543.945,-522.461,-487.793,410.645
1669195281.712,-833.008,-1000.000,-1000.000,-327.148
1669195281.716,-1000.000,-709.961,-560.547,-427.246
1669195281.720,35.156,711.914,816.406,41.016
1669195281.721,-883.789,-927.734,983.398,659.180
1669195281.725,759.766,-323.730,-452.148,548.828
1669195281.729,-651.855,-1000.000,-1000.000,-213.867
1669195281.733,-1000.000,-777.344,-793.457,-390.625
1669195281.737,-54.199,592.773,585.938,40.527
1669195281.741,-928.711,-846.191,-891.113,668.945
1669195281.745,840.820,-11.230,-205.078,699.219
1669195281.748,-575.684,-1000.000,-1000.000,-48.340
1669195281.752,-1000.000,-831.543,-814.453,-337.402
1669195281.756,-59.570,533.691,512.695,42.480
1669195281.760,-947.754,-818.359,-829.590,687.500
1669195281.764,886.719,404.785,541.504,825.684
1669195281.782,-475.586,-986.816,-911.621,83.984
1669195281.786,-1000.000,-908.691,-931.152,-314.453
1669195281.790,-204.102,534.180,551.270,-25.391
1669195281.794,977.051,-832.520,-843.262,563.477
1669195281.798,977.051,588.379,630.859,801.758
1669195281.802,-296.875,-851.562,-837.891,75.684
1669195281.806,-1000.000,-1000.000,-991.699,-408.203
1669195281.809,-531.738,419.434,474.121,-168.945
1669195281.813,805.664,-841.797,-833.984,420.410
1669195281.817,-911.133,702.637,635.254,781.250
1669195281.821,-70.801,-693.359,-757.324,173.828
1669195281.825,-1000.000,-1000.000,-1000.000,-424.805
1669195281.842,-791.992,147.461,116.699,-316.895
1669195281.846,601.074,-868.652,-841.797,225.586
1669195281.850,-840.820,771.484,671.387,644.043
1669195281.854,100.098,-576.172,-722.168,136.719
1669195281.858,-1000.000,-1000.000,-1000.000,-508.301
1669195281.862,-874.512,-326.660,-111.816,-462.402
1669195281.866,515.625,996.582,-920.898,60.547
1669195281.869,-813.965,854.004,783.691,550.293
1669195281.873,304.688,-563.965,-614.746,160.156
1669195281.877,-981.445,-1000.000,-1000.000,-532.227
1669195281.881,-994.629,-601.562,-336.426,-579.102
1669195281.885,341.309,867.188,982.422,-88.379
1669195281.887,-802.734,905.762,875.488,484.863
1669195281.891,510.254,-583.008,-542.969,220.703
1669195281.895,-835.938,-1000.000,-1000.000,-519.043
1669195281.899,-1000.000,-762.695,-696.289,-620.117
1669195281.903,16.113,697.754,717.773,-129.883
1669195281.907,-856.445,-988.281,995.117,466.309
1669195281.911,652.832,-482.422,-487.793,303.223
1669195281.914,-713.379,-1000.000,-1000.000,-459.961
1669195281.918,-1000.000,-837.891,-854.492,-651.855
1669195281.922,-489.258,557.617,585.449,-251.953
1669195281.926,937.500,-880.371,-951.660,375.977
1669195281.930,831.055,-273.438,-460.938,364.746
1669195281.917,-639.648,-1000.000,-1000.000,-390.137
1669195281.921,-1000.000,-839.844,-838.867,-671.387
1669195281.925,-753.906,522.461,530.762,-337.402
1669195281.929,739.746,-828.613,-865.234,280.762
1669195281.933,929.688,7.324,-105.957,412.598
1669195281.937,-611.816,-1000.000,-1000.000,-323.242
1669195281.941,-1000.000,-879.883,-840.332,-709.961
1669195281.944,-858.398,468.262,500.488,-381.348
1669195281.948,622.070,-805.176,-821.777,255.371
1669195281.952,957.031,397.949,527.832,455.566
1669195281.956,-614.746,-937.500,-870.605,-269.043
1669195281.960,-1000.000,-1000.000,-1000.000,-744.141
1669195281.961,-874.512,313.965,337.891,-503.418
1669195281.965,579.102,-814.453,-822.266,91.797
1669195281.969,-994.141,621.582,618.652,426.270
1669195281.973,-556.152,-775.391,-779.297,-151.855
1669195281.977,-1000.000,-1000.000,-1000.000,-695.312
1669195281.981,-927.734,123.535,106.934,-539.062
1669195281.985,435.059,-860.840,-837.891,44.434
1669195281.988,-900.391,741.211,652.344,456.055
1669195281.992,-423.340,-623.047,-745.605,-68.359
1669195281.996,-1000.000,-1000.000,-1000.000,-687.500
1669195282.000,-1000.000,-255.859,-87.402,-609.863
1669195282.004,150.391,-976.074,-909.180,-56.641
1669195282.007,-845.215,838.867,766.602,447.754
1669195282.011,-238.770,-562.500,-626.465,33.203
1669195282.015,-1000.000,-1000.000,-1000.000,-634.277
1669195282.019,-1000.000,-600.586,-361.328,-650.391
1669195282.023,-304.688,871.094,978.027,-154.297
1669195282.027,-911.621,899.902,863.770,415.039
1669195282.031,114.746,-588.867,-566.895,104.492
1669195282.034,-1000.000,-1000.000,-1000.000,-620.117
1669195282.038,-1000.000,-740.234,-662.598,-705.566
1669195282.042,-647.949,732.422,748.535,-250.488
1669195282.046,937.988,985.840,981.934,364.746
1669195282.050,514.160,-517.578,-497.559,170.898
1669195282.052,-916.992,-1000.000,-1000.000,-586.426
1669195282.056,-1000.000,-828.613,-853.027,-740.723
1669195282.060,-814.941,578.125,589.355,-304.199
1669195282.064,753.418,-896.484,-957.031,355.957
1669195282.068,774.414,-323.730,-471.191,312.500
1669195282.072,-791.016,-1000.000,-1000.000,-436.035
1669195282.076,-1000.000,-833.496,-840.820,-692.383
1669195282.079,-851.074,516.602,534.668,-317.871
1669195282.083,649.414,-826.660,-870.605,326.172
1669195282.087,926.270,44.434,-145.508,427.734
1669195282.091,-645.996,-1000.000,-1000.000,-288.086
1669195282.095,-1000.000,-860.840,-832.520,-640.137
1669195282.097,-869.141,505.371,501.465,-313.477
1669195282.101,609.863,-815.430,-827.148,322.754
1669195282.105,958.984,446.777,562.012,536.133
1669195282.109,-614.746,-944.824,-899.414,-134.277
1669195282.113,-1000.000,-963.867,-939.941,-557.129
1669195282.117,-867.676,459.961,540.039,-273.438
1669195282.121,584.961,-833.496,-837.402,349.121
1669195282.124,-989.746,656.738,625.977,646.973
1669195282.128,-533.203,-765.625,-781.250,23.438
1669195282.132,-1000.000,-1000.000,-1000.000,-498.047
1669195282.136,-863.281,289.551,205.566,-315.918
1669195282.140,532.227,-853.027,-835.449,260.742
1669195282.141,-890.625,770.508,661.133,673.340
1669195282.145,-339.355,-593.750,-741.699,146.973
1669195282.149,-1000.000,-1000.000,-1000.000,-476.074
1669195282.153,-886.719,-43.457,21.973,-374.512
1669195282.157,433.105,-917.480,-884.766,150.391
1669195282.161,-816.895,819.336,764.648,627.930
1669195282.165,-19.531,-548.340,-625.488,211.426
1669195282.168,-1000.000,-1000.000,-1000.000,-471.680
1669195282.172,-974.609,-426.758,-186.523,-479.980
1669195282.176,278.320,957.031,-956.543,17.578
1669195282.180,-788.086,868.652,833.496,580.078
1669195282.184,325.195,-574.707,-557.617,275.391
1669195282.201,-919.434,-1000.000,-1000.000,-468.750
1669195282.205,-1000.000,-723.145,-578.125,-544.922
1669195282.209,-84.473,750.977,816.406,-91.309
1669195282.213,-863.770,976.562,961.914,490.723
1669195282.217,573.242,-523.926,-497.559,297.363
1669195282.221,-797.852,-1000.000,-1000.000,-454.102
1669195282.225,-1000.000,-812.988,-832.031,-609.375
1669195282.228,-453.613,604.492,604.492,-175.293
1669195282.232,969.727,-911.133,-962.891,486.816
1669195282.236,782.227,-350.586,-472.168,413.574
1669195282.240,-681.152,-1000.000,-1000.000,-369.141
1669195282.244,-1000.000,-835.938,-849.609,-608.398
1669195282.247,-675.781,527.344,559.570,-233.398
1669195282.251,811.523,-837.891,-905.762,381.836
1669195282.255,904.785,-53.223,-332.520,440.918
1669195282.259,-612.305,-1000.000,-1000.000,-297.852
1669195282.263,-1000.000,-853.516,-818.359,-640.137
1669195282.267,-810.059,503.418,496.582,-319.336
1669195282.271,677.734,-812.012,-825.684,305.176
1669195282.274,945.801,329.102,415.527,480.469
1669195282.278,-610.352,-993.164,-948.730,-201.660
1669195282.282,-1000.000,-953.125,-943.848,-613.770
1669195282.286,-851.074,434.570,480.469,-356.445
1669195282.290,605.469,-821.777,-830.566,245.117
1669195282.306,-992.676,606.934,625.488,536.621
1669195282.310,-529.297,-818.359,-803.223,-73.730
1669195282.314,-1000.000,-1000.000,-1000.000,-573.730
1669195282.318,-851.562,329.590,295.898,-375.977
1669195282.322,549.805,-851.562,-827.637,237.305
1669195282.326,-893.555,761.719,650.391,627.441
1669195282.330,-329.590,-626.953,-754.395,88.867
1669195282.333,-1000.000,-1000.000,-1000.000,-483.887
1669195282.337,-839.844,111.816,107.910,-359.863
1669195282.341,496.094,-886.230,-869.629,205.078
1669195282.345,-820.801,815.430,770.996,682.617
1669195282.349,99.121,-557.129,-627.930,266.113
1669195282.351,-1000.000,-1000.000,-1000.000,-358.887
1669195282.355,-888.184,-131.348,7.812,-321.777
1669195282.359,472.656,-941.406,-909.180,207.520
1669195282.363,-814.453,827.148,831.543,754.395
1669195282.367,500.977,-548.340,-525.879,412.598
1669195282.371,-902.832,-1000.000,-1000.000,-303.711
1669195282.375,-1000.000,-578.125,-293.457,-375.488
1669195282.378,399.414,854.980,980.469,78.125
1669195282.382,-835.449,955.078,917.480,646.973
1669195282.386,676.758,-495.117,-465.332,421.387
1669195282.390,-732.910,-1000.000,-1000.000,-319.336
1669195282.394,-1000.000,-764.648,-680.664,-453.613
1669195282.397,196.289,658.691,722.168,-20.020
1669195282.401,-867.676,-920.898,-994.629,587.402
1669195282.405,770.020,-344.238,-463.379,470.703
1669195282.409,-583.008,-1000.000,-1000.000,-287.598
1669195282.413,-1000.000,-840.332,-852.051,-524.902
1669195282.417,-246.582,546.387,575.684,-178.711
1669195282.421,-982.910,-857.422,-929.199,416.992
1669195282.424,842.285,-181.152,-412.598,452.637
1669195282.428,-560.547,-1000.000,-1000.000,-301.270
1669195282.432,-1000.000,-837.891,-824.707,-625.977
1669195282.436,-641.113,513.184,510.254,-290.039
1669195282.440,828.613,-813.965,-840.820,319.336
1669195282.426,909.668,189.941,172.852,465.332
1669195282.430,-597.656,-1000.000,-1000.000,-236.328
1669195282.434,-1000.000,-952.148,-915.039,-636.719
1669195282.438,-809.570,417.969,479.004,-356.445
1669195282.442,647.461,-803.711,-820.312,232.910
1669195282.446,794.922,308.594,382.324,431.152
1669195282.450,-620.117,-954.590,-900.879,-142.578
1669195282.453,-1000.000,-1000.000,-1000.000,-583.008
1669195282.457,-870.605,267.578,224.609,-429.688
1669195282.461,567.383,-822.266,-819.824,133.301
1669195282.465,-918.945,676.758,634.766,512.207
1669195282.469,-396.484,-711.426,-766.602,-8.301
1669195282.472,-1000.000,-1000.000,-1000.000,-567.871
1669195282.476,-879.395,34.668,58.594,-443.848
1669195282.480,475.586,-894.043,-855.957,129.395
1669195282.484,-843.750,793.945,685.059,569.824
1669195282.488,-186.523,-565.430,-711.426,81.543
1669195282.492,-1000.000,-1000.000,-1000.000,-555.176
1669195282.496,-951.660,-389.648,-163.574,-505.371
1669195282.499,304.688,972.168,-939.941,-3.906
1669195282.503,-793.457,864.258,802.734,516.113
1669195282.507,142.090,-569.336,-602.051,182.129
1669195282.511,-999.023,-1000.000,-1000.000,-504.395
1669195282.515,-1000.000,-619.629,-359.375,-543.945
1669195282.517,30.762,846.191,964.844,-61.523
1669195282.521,-824.219,925.781,900.391,524.902
1669195282.525,481.445,-560.059,-513.672,295.410
1669195282.529,-847.168,-1000.000,-1000.000,-439.941
1669195282.533,-1000.000,-765.137,-726.562,-565.430
1669195282.537,-319.336,679.199,690.918,-134.766
1669195282.541,-958.984,-959.473,-992.188,465.332
1669195282.544,708.496,-429.688,-479.004,358.398
1669195282.548,-726.074,-1000.000,-1000.000,-395.020
1669195282.552,-1000.000,-835.938,-853.027,-608.887
1669195282.556,-589.355,544.434,579.102,-213.867
1669195282.560,877.441,-858.887,-937.012,394.043
1669195282.577,868.164,-187.988,-430.176,402.344
1669195282.581,-626.465,-1000.000,-1000.000,-326.172
1669195282.585,-1000.000,-841.309,-827.148,-620.117
1669195282.589,-771.484,518.555,520.020,-288.574
1669195282.593,719.238,-831.543,-931.152,335.938
1669195282.597,937.012,112.793,16.113,462.891
1669195282.601,-607.910,-1000.000,-1000.000,-246.094
1669195282.604,-1000.000,-898.926,-866.699,-620.605
1669195282.608,-853.027,465.332,511.230,-345.215
1669195282.612,622.070,-809.082,-824.707,258.789
1669195282.616,969.727,466.309,571.289,512.695
1669195282.620,-592.285,-906.738,-848.633,-126.465
1669195282.622,-1000.000,-1000.000,-1000.000,-596.680
1669195282.626,-861.816,332.031,334.961,-380.371
1669195282.630,571.289,-823.730,-822.754,209.473
1669195282.634,-950.195,662.109,627.930,528.320
1669195282.638,-463.379,-728.027,-767.090,-36.621
1669195282.642,-1000.000,-1000.000,-1000.000,-564.453
1669195282.646,-882.324,112.793,118.652,-442.383
1669195282.649,481.934,-886.719,-853.516,102.051
1669195282.653,-860.840,788.086,684.082,551.758
1669195282.657,-256.836,-592.773,-729.492,90.332
1669195282.661,-1000.000,-1000.000,-1000.000,-535.645
1669195282.665,-940.918,-175.781,-25.879,-481.445
1669195282.682,320.801,-954.590,-899.902,42.480
1669195282.686,-795.898,838.867,786.621,567.383
1669195282.690,86.426,-560.547,-612.305,194.336
1669195282.694,-1000.000,-1000.000,-1000.000,-474.121
1669195282.698,-968.262,-434.570,-155.273,-436.035
1669195282.702,172.363,931.152,-957.520,70.801
1669195282.706,-807.129,891.602,862.305,599.609
1669195282.709,459.961,-544.922,-505.859,334.473
1669195282.713,-866.699,-1000.000,-1000.000,-375.977
1669195282.717,-1000.000,-707.520,-557.129,-486.328
1669195282.721,-119.141,740.723,823.242,-48.828
1669195282.725,-897.949,-978.027,973.145,556.641
1669195282.712,691.406,-434.082,-469.727,418.457
1669195282.716,-712.891,-1000.000,-1000.000,-338.867
1669195282.720,-1000.000,-807.617,-819.824,-524.414
1669195282.724,-395.996,584.473,606.445,-111.816
1669195282.728,969.238,-872.070,-947.266,499.512
1669195282.732,844.238,-212.891,-436.523,484.863
1669195282.736,-598.633,-1000.000,-1000.000,-255.371
1669195282.739,-1000.000,-837.402,-825.684,-525.391
1669195282.743,-606.934,514.648,519.043,-159.180
1669195282.747,852.539,-818.848,-850.098,454.590
1669195282.751,902.344,155.273,93.750,569.336
1669195282.755,-590.820,-1000.000,-1000.000,-134.277
1669195282.757,-1000.000,-883.789,-865.234,-500.488
1669195282.761,-756.348,501.465,517.578,-211.426
1669195282.765,720.703,-814.941,-828.613,381.348
1669195282.769,962.891,460.449,577.148,604.004
1669195282.773,-561.035,-919.922,-869.629,-39.551
1669195282.777,-1000.000,-1000.000,-995.117,-500.000
1669195282.781,-832.520,381.836,442.871,-287.598
1669195282.784,597.168,-825.684,-829.590,284.668
1669195282.788,-938.477,648.438,624.512,589.844
1669195282.792,-419.922,-758.301,-773.438,8.301
1669195282.796,-1000.000,-1000.000,-1000.000,-521.973
1669195282.800,-845.215,190.918,136.719,-376.465
1669195282.802,537.109,-862.793,-839.844,171.875
1669195282.806,-861.328,772.461,666.504,583.008
1669195282.810,-211.426,-592.773,-738.770,107.910
1669195282.814,-1000.000,-1000.000,-1000.000,-493.164
1669195282.818,-883.301,-138.184,-12.207,-428.711
1669195282.822,441.406,-943.359,-894.043,112.793
1669195282.826,-808.105,830.566,772.461,592.285
1669195282.829,125.488,-553.223,-619.141,211.426
1669195282.833,-1000.000,-1000.000,-1000.000,-447.266
1669195282.837,-989.258,-475.098,-213.867,-472.168
1669195282.841,285.156,930.664,-971.191,22.949
1669195282.845,-795.898,886.719,857.910,566.406
1669195282.847,455.566,-563.477,-531.738,280.762
1669195282.851,-873.535,-1000.000,-1000.000,-432.129
1669195282.855,-1000.000,-691.895,-527.832,-511.719
1669195282.859,41.992,761.719,846.191,-60.547
1669195282.863,-857.910,-994.629,964.844,527.832
1669195282.867,667.480,-454.102,-472.168,388.672
1669195282.871,-720.215,-1000.000,-1000.000,-340.820
1669195282.874,-1000.000,-775.391,-784.180,-513.184
1669195282.878,-256.348,630.371,637.695,-111.328
1669195282.882,-977.539,-892.578,-963.867,494.141
1669195282.886,820.312,-264.160,-452.148,481.934
1669195282.890,-596.680,-1000.000,-1000.000,-256.348
1669195282.892,-1000.000,-827.637,-826.172,-515.625
1669195282.896,-501.465,523.438,531.738,-138.672
1669195282.900,912.109,-823.730,-858.887,487.793
1669195282.904,884.277,115.723,0.488,581.055
1669195282.908,-579.590,-1000.000,-1000.000,-135.742
1669195282.912,-1000.000,-863.281,-852.051,-461.914
1669195282.916,-653.809,519.531,511.719,-151.855
1669195282.919,806.152,-819.336,-830.566,432.129
1669195282.923,947.266,483.398,583.984,623.047
1669195282.927,-539.551,-925.781,-883.301,-33.691
1669195282.931,-1000.000,-972.656,-955.078,-468.750
1669195282.935,-762.207,458.008,522.949,-226.562
1669195282.951,666.504,-832.031,-836.426,346.680
1669195282.955,-939.941,647.461,627.441,633.301
1669195282.959,-383.301,-775.879,-783.203,25.879
1669195282.963,-1000.000,-1000.000,-1000.000,-507.812
1669195282.967,-827.148,291.992,216.309,-344.727
1669195282.971,551.758,-849.121,-833.984,225.098
1669195282.975,-855.957,753.906,653.320,615.723
1669195282.978,-148.438,-605.957,-748.047,104.004
1669195282.982,-1000.000,-1000.000,-1000.000,-486.328
1669195282.986,-851.074,-88.379,20.996,-409.668
1669195282.990,507.812,-929.688,-883.789,107.910
1669195282.994,-817.383,823.242,758.789,568.848
1669195282.996,150.879,-554.688,-632.324,167.969
1669195283.000,-1000.000,-1000.000,-1000.000,-469.238
1669195283.004,-939.453,-427.246,-185.547,-466.309
1669195283.008,399.902,955.566,-957.520,22.949
1669195283.012,-803.711,869.629,838.379,555.664
1669195283.016,459.473,-572.754,-554.199,251.465
1669195283.020,-889.160,-1000.000,-1000.000,-450.195
1669195283.023,-1000.000,-667.480,-480.469,-520.508
1669195283.027,199.707,794.922,881.348,-60.547
1669195283.031,-832.031,973.145,947.754,522.949
1669195283.035,647.949,-503.906,-482.910,340.820
1669195283.039,-731.445,-1000.000,-1000.000,-389.648
1669195283.042,-1000.000,-794.434,-779.785,-542.969
1669195283.046,-110.840,620.117,643.066,-138.672
1669195283.050,-927.734,-905.762,-973.145,470.703
1669195283.054,785.156,-326.660,-467.773,418.457
1669195283.058,-604.004,-1000.000,-1000.000,-332.031
1669195283.062,-1000.000,-838.379,-850.098,-578.613
1669195283.066,-476.074,539.551,564.453,-212.891
1669195283.069,919.922,-843.750,-909.668,388.672
1669195283.073,780.273,-137.207,-360.840,425.293
1669195283.077,-613.770,-1000.000,-1000.000,-271.484
1669195283.081,-1000.000,-834.961,-816.895,-602.539
1669195283.085,-722.168,508.301,498.535,-309.570
1669195283.086,772.461,-811.523,-828.125,298.828
1669195283.090,929.688,311.035,368.652,471.191
1669195283.094,-595.215,-999.023,-964.355,-231.934
1669195283.098,-1000.000,-950.684,-937.500,-660.645
1669195283.102,-825.684,433.105,474.609,-394.043
1669195283.106,628.418,-816.406,-826.660,191.895
1669195283.110,-984.863,567.383,608.887,458.984
1669195283.113,-504.883,-836.914,-795.898,-156.250
1669195283.117,-1000.000,-1000.000,-1000.000,-655.273
1669195283.121,-851.562,288.574,194.336,-476.074
1669195283.125,552.246,-839.844,-831.055,70.801
1669195283.129,-893.555,721.680,644.043,444.336
1669195283.132,-337.402,-660.156,-760.742,-87.891
1669195283.136,-1000.000,-1000.000,-1000.000,-665.039
1669195283.140,-878.418,22.949,32.227,-583.984
1669195283.144,454.590,-900.391,-871.582,-95.703
1669195283.148,-822.266,802.734,722.168,355.957
1669195283.152,-47.852,-547.363,-667.480,-62.500
1669195283.156,-1000.000,-1000.000,-1000.000,-683.105
1669195283.159,-971.191,-489.258,-219.727,-657.227
1669195283.163,274.902,928.711,-965.820,-217.285
1669195283.167,-788.574,879.883,829.102,270.996
1669195283.171,325.684,-577.637,-573.242,3.906
1669195283.175,-922.852,-1000.000,-1000.000,-671.387
1669195283.176,-1000.000,-685.547,-533.691,-761.230
1669195283.180,-55.664,780.762,844.238,-336.914
1669195283.184,-862.793,980.469,958.984,221.680
1669195283.188,605.469,-501.953,-483.887,86.426
1669195283.192,-773.438,-1000.000,-1000.000,-587.891
1669195283.196,-1000.000,-819.824,-840.820,-730.469
1669195283.200,-408.691,587.402,597.656,-330.566
1669195283.203,978.516,-895.996,-960.938,242.188
1669195283.207,803.223,-314.941,-473.145,197.266
1669195283.211,-647.461,-1000.000,-1000.000,-469.727
1669195283.215,-1000.000,-834.961,-849.121,-674.316
1669195283.219,-643.555,518.066,548.828,-305.664
1669195283.221,830.078,-828.125,-895.508,270.020
1669195283.225,905.273,32.715,-271.484,332.031
1669195283.229,-600.098,-1000.000,-1000.000,-297.852
1669195283.233,-1000.000,-857.910,-824.219,-591.797
1669195283.237,-784.668,513.184,495.605,-290.527
1669195283.241,702.148,-814.941,-830.078,291.504
1669195283.245,944.336,386.719,480.957,474.121
1669195283.248,-601.562,-968.750,-915.039,-140.137
1669195283.252,-1000.000,-961.426,-958.984,-518.066
1669195283.256,-838.379,441.406,480.469,-284.180
1669195283.260,605.957,-829.590,-833.008,242.188
1669195283.264,-967.285,648.438,625.488,504.883
1669195283.267,-477.539,-772.461,-780.762,-28.320
1669195283.271,-1000.000,-1000.000,-1000.000,-473.145
1669195283.275,-846.191,283.691,198.242,-296.387
1669195283.279,544.922,-851.074,-833.984,224.609
1669195283.283,-876.953,763.672,650.879,580.078
1669195283.287,-266.113,-605.957,-750.000,136.719
1669195283.291,-1000.000,-1000.000,-1000.000,-369.141
1669195283.294,-862.305,-17.578,4.395,-290.039
1669195283.298,474.609,-909.668,-880.859,200.684
1669195283.302,-816.895,812.988,738.281,633.789
1669195283.306,83.008,-552.246,-658.203,274.414
1669195283.310,-1000.000,-1000.000,-1000.000,-289.062
1669195283.327,-948.242,-408.691,-194.336,-293.945
1669195283.331,359.863,961.914,-963.379,146.484
1669195283.335,-799.805,873.047,840.820,630.859
1669195283.339,441.895,-561.035,-549.316,361.816
1669195283.343,-894.531,-1000.000,-1000.000,-250.977
1669195283.347,-1000.000,-672.363,-495.117,-321.777
1669195283.351,174.316,782.227,869.629,67.383
1669195283.354,-835.449,995.117,955.078,565.918
1669195283.358,653.320,-465.820,-473.633,401.855
1669195283.362,-728.027,-1000.000,-1000.000,-229.492
1669195283.366,-1000.000,-796.387,-792.969,-397.461
1669195283.370,-126.465,619.141,632.324,-57.129
1669195283.372,-934.570,-904.297,-969.238,486.816
1669195283.376,793.945,-323.242,-467.285,427.734
1669195283.380,-598.145,-1000.000,-1000.000,-213.379
1669195283.384,-1000.000,-836.914,-850.586,-414.062
1669195283.388,-483.887,521.973,558.105,-96.680
1669195283.392,918.457,-832.520,-908.203,438.477
1669195283.396,880.371,-11.230,-320.801,489.258
1669195283.399,-579.590,-1000.000,-1000.000,-140.625
1669195283.403,-1000.000,-860.352,-824.707,-416.016
1669195283.407,-702.148,497.070,494.141,-141.602
1669195283.411,775.879,-812.012,-834.961,378.906
1669195283.415,934.082,385.742,424.805,527.832
1669195283.417,-583.984,-968.262,-930.664,-66.406
1669195283.421,-1000.000,-966.797,-954.102,-436.035
1669195283.425,-817.871,432.617,474.121,-237.305
1669195283.429,629.883,-821.289,-833.984,278.809
1669195283.433,-973.633,599.609,613.281,535.156
1669195283.437,-478.516,-812.988,-788.574,-4.395
1669195283.441,-1000.000,-1000.000,-1000.000,-439.453
1669195283.444,-845.703,287.598,216.309,-276.855
1669195283.448,550.293,-844.238,-830.566,219.727
1669195283.452,-883.301,738.770,644.531,550.293
1669195283.456,-284.668,-635.742,-754.395,101.074
1669195283.460,-1000.000,-1000.000,-1000.000,-406.250
1669195283.462,-857.910,-6.348,12.207,-331.543
1669195283.466,491.211,-906.250,-875.000,135.254
1669195283.470,-825.195,811.035,723.145,530.762
1669195283.474,15.137,-555.176,-677.246,164.062
1669195283.478,-1000.000,-1000.000,-1000.000,-386.230
1669195283.482,-931.152,-379.395,-169.922,-366.211
1669195283.486,377.441,975.586,-946.777,72.754
1669195283.489,-799.316,863.770,812.012,539.551
1669195283.493,395.020,-568.848,-593.750,263.184
1669195283.497,-926.758,-1000.000,-1000.000,-325.684
1669195283.501,-1000.000,-589.355,-343.262,-375.000
1669195283.505,234.863,846.191,958.984,34.668
1669195283.507,-826.660,961.426,920.898,542.480
1669195283.511,639.648,-487.793,-473.633,341.309
1669195283.515,-755.859,-1000.000,-1000.000,-267.578
1669195283.519,-1000.000,-755.859,-707.520,-368.652
1669195283.523,32.227,666.504,693.848,-8.789
1669195283.527,-894.531,-917.969,-987.793,513.672
1669195283.531,776.367,-331.543,-463.379,421.387
